Timestamp,Local time,Counter,Interpolated,Contact Quality,AF3,T7,Pz,T8,AF4
1749332970.0945,14:49:30.094,48,false,0.0,4221.795,4372.051,4095.513,4405.256,4246.282
1749332970.1023,14:49:30.102,49,false,0.0,4233.718,4369.359,4103.59,4397.051,4233.59
1749332970.1101,14:49:30.110,50,false,0.0,4233.333,4365.897,4099.744,4380.769,4220.128
1749332970.118,14:49:30.118,51,false,0.0,4230.385,4355.385,4099.872,4366.154,4220.641
1749332970.1259,14:49:30.125,52,false,0.0,4235.0,4347.949,4106.41,4359.359,4217.949
1749332970.1337,14:49:30.133,53,false,0.0,4233.333,4360.513,4101.538,4363.462,4214.487
1749332970.1415,14:49:30.141,54,false,0.0,4220.769,4365.769,4090.513,4368.205,4211.026
1749332970.1493,14:49:30.149,55,false,0.0,4213.974,4352.436,4095.256,4367.949,4204.744
1749332970.1572,14:49:30.157,56,false,0.0,4218.077,4353.205,4103.462,4383.077,4211.41
1749332970.165,14:49:30.165,57,false,0.0,4213.718,4361.026,4087.179,4408.718,4215.0
1749332970.1728,14:49:30.172,58,false,0.0,4203.205,4347.949,4070.0,4416.026,4198.846
1749332970.1806,14:49:30.180,59,false,0.0,4215.256,4342.051,4088.718,4419.487,4204.103
1749332970.1883,14:49:30.188,60,false,0.0,4232.436,4363.333,4110.641,4437.051,4230.385
1749332970.1962,14:49:30.196,61,false,0.0,4219.231,4374.872,4099.487,4439.744,4228.846
1749332970.204,14:49:30.204,62,false,0.0,4203.59,4366.154,4088.846,4423.205,4216.154
1749332970.2118,14:49:30.211,63,false,0.0,4210.641,4366.538,4097.179,4415.256,4219.103
1749332970.2195,14:49:30.219,64,false,0.0,4209.615,4371.795,4099.359,4407.051,4214.231
1749332970.2273,14:49:30.227,65,false,0.0,4200.513,4364.231,4093.59,4386.795,4205.513
1749332970.2351,14:49:30.235,66,false,0.0,4205.0,4356.282,4084.487,4376.538,4206.795
1749332970.2429,14:49:30.242,67,false,0.0,4204.744,4363.333,4075.128,4373.462,4206.282
1749332970.2506,14:49:30.250,68,false,0.0,4203.333,4380.897,4091.538,4359.487,4215.256
1749332970.2584,14:49:30.258,69,false,0.0,4222.051,4386.667,4117.821,4353.846,4232.821
1749332970.2662,14:49:30.266,70,false,0.0,4229.487,4372.051,4108.974,4366.154,4226.154
1749332970.2741,14:49:30.274,71,false,0.0,4215.0,4365.0,4093.462,4372.821,4211.923
1749332970.2818,14:49:30.281,72,false,0.0,4217.179,4374.872,4100.641,4376.026,4220.641
1749332970.2896,14:49:30.289,73,false,0.0,4227.051,4376.667,4098.846,4393.59,4231.41
1749332970.2974,14:49:30.297,74,false,0.0,4222.179,4378.077,4097.051,4419.103,4232.949
1749332970.3052,14:49:30.305,75,false,0.0,4225.385,4386.923,4116.667,4441.667,4238.974
1749332970.3129,14:49:30.312,76,false,0.0,4228.462,4377.821,4118.077,4448.205,4241.667
1749332970.3207,14:49:30.320,77,false,0.0,4208.462,4366.026,4105.385,4430.256,4232.436
1749332970.3285,14:49:30.328,78,false,0.0,4197.308,4375.641,4120.513,4417.564,4221.282
1749332970.3363,14:49:30.336,79,false,0.0,4209.231,4377.564,4127.692,4420.385,4213.59
1749332970.344,14:49:30.344,80,false,0.0,4207.821,4366.667,4097.564,4397.692,4205.385
1749332970.3519,14:49:30.351,81,false,0.0,4190.769,4366.538,4079.872,4359.872,4196.282
1749332970.3597,14:49:30.359,82,false,0.0,4187.051,4371.41,4094.744,4358.462,4201.538
1749332970.3675,14:49:30.367,83,false,0.0,4196.282,4386.538,4112.564,4372.308,4226.538
1749332970.3752,14:49:30.375,84,false,0.0,4205.769,4410.897,4124.103,4364.487,4243.718
1749332970.383,14:49:30.383,85,false,0.0,4216.538,4405.769,4131.41,4361.154,4241.282
1749332970.3908,14:49:30.390,86,false,0.0,4221.026,4380.0,4119.103,4373.718,4231.154
1749332970.3986,14:49:30.398,87,false,0.0,4201.154,4366.154,4076.154,4378.974,4202.436
1749332970.4065,14:49:30.406,88,false,0.0,4174.359,4349.615,4036.923,4385.0,4169.744
1749332970.4143,14:49:30.414,89,false,0.0,4181.282,4338.59,4053.462,4407.051,4177.949
1749332970.4221,14:49:30.422,90,false,0.0,4206.667,4353.077,4095.513,4428.846,4201.667
1749332970.43,14:49:30.430,91,false,0.0,4208.718,4358.205,4095.256,4435.769,4194.615
1749332970.4379,14:49:30.437,92,false,0.0,4203.077,4350.897,4082.179,4434.872,4191.538
1749332970.4457,14:49:30.445,93,false,0.0,4213.462,4366.154,4103.974,4431.026,4211.795
1749332970.4535,14:49:30.453,94,false,0.0,4217.949,4381.026,4120.641,4419.103,4212.692
1749332970.4613,14:49:30.461,95,false,0.0,4211.026,4374.231,4112.821,4406.41,4196.026
1749332970.4692,14:49:30.469,96,false,0.0,4211.41,4373.846,4112.949,4403.333,4195.641
1749332970.477,14:49:30.477,97,false,0.0,4212.564,4385.641,4115.256,4390.897,4200.641
1749332970.4848,14:49:30.484,98,false,0.0,4207.949,4391.538,4111.026,4367.308,4197.949
1749332970.4926,14:49:30.492,99,false,0.0,4210.0,4384.872,4116.538,4368.077,4197.949
1749332970.5005,14:49:30.500,100,false,0.0,4216.154,4372.436,4117.179,4378.205,4197.949
1749332970.5084,14:49:30.508,101,false,0.0,4215.385,4372.564,4102.692,4360.769,4195.385
1749332970.5162,14:49:30.516,102,false,0.0,4211.154,4375.769,4094.615,4351.41,4199.744
1749332970.524,14:49:30.524,103,false,0.0,4215.769,4362.692,4093.974,4375.128,4209.487
1749332970.5319,14:49:30.531,104,false,0.0,4233.59,4361.026,4094.231,4397.308,4216.41
1749332970.5397,14:49:30.539,105,false,0.0,4255.385,4382.564,4104.231,4416.41,4219.359
1749332970.5475,14:49:30.547,106,false,0.0,4276.923,4390.641,4119.615,4437.821,4227.436
1749332970.5553,14:49:30.555,107,false,0.0,4305.641,4386.795,4133.59,4437.821,4247.692
1749332970.5632,14:49:30.563,108,false,0.0,4336.282,4389.872,4137.564,4427.949,4267.692
1749332970.571,14:49:30.571,109,false,0.0,4359.231,4379.359,4109.744,4424.103,4271.026
1749332970.5788,14:49:30.578,110,false,0.0,4388.462,4359.103,4073.077,4415.385,4270.769
1749332970.5867,14:49:30.586,111,false,0.0,4430.0,4363.077,4082.949,4418.077,4287.308
1749332970.5944,14:49:30.594,112,false,0.0,4456.923,4386.282,4121.923,4428.205,4306.538
1749332970.6022,14:49:30.602,113,false,0.0,4458.462,4402.179,4131.154,4410.641,4306.538
1749332970.61,14:49:30.610,114,false,0.0,4455.897,4399.872,4115.256,4389.103,4301.923
1749332970.6178,14:49:30.617,115,false,0.0,4456.538,4386.154,4106.41,4390.128,4310.256
1749332970.6255,14:49:30.625,116,false,0.0,4449.615,4381.667,4107.051,4389.872,4311.795
1749332970.6333,14:49:30.633,117,false,0.0,4433.974,4398.59,4118.462,4397.308,4297.949
1749332970.6411,14:49:30.641,118,false,0.0,4413.333,4422.051,4133.59,4418.077,4294.615
1749332970.6489,14:49:30.648,119,false,0.0,4393.974,4424.487,4130.0,4414.103,4297.949
1749332970.6566,14:49:30.656,120,false,0.0,4386.154,4403.846,4122.949,4408.077,4284.359
1749332970.6644,14:49:30.664,121,false,0.0,4384.103,4393.718,4136.923,4438.846,4270.385
1749332970.6723,14:49:30.672,122,false,0.0,4370.128,4404.487,4144.231,4457.179,4268.205
1749332970.6801,14:49:30.680,123,false,0.0,4350.385,4408.59,4136.41,4437.051,4260.0
1749332970.6878,14:49:30.687,124,false,0.0,4343.718,4409.487,4143.718,4427.179,4257.436
1749332970.6956,14:49:30.695,125,false,0.0,4343.077,4417.308,4152.308,4436.538,4272.436
1749332970.7034,14:49:30.703,126,false,0.0,4336.667,4406.667,4144.103,4437.179,4278.59
1749332970.7112,14:49:30.711,127,false,0.0,4334.872,4390.769,4146.923,4429.103,4273.718
1749332970.7189,14:49:30.718,0,false,0.0,4337.564,4403.59,4157.436,4416.538,4275.513
1749332970.7267,14:49:30.726,1,false,0.0,4323.974,4410.897,4151.026,4402.564,4269.744
1749332970.7345,14:49:30.734,2,false,0.0,4299.615,4389.615,4145.128,4396.795,4252.179
1749332970.7423,14:49:30.742,3,false,0.0,4284.872,4378.974,4143.333,4389.615,4244.872
1749332970.7501,14:49:30.750,4,false,0.0,4275.0,4386.41,4135.513,4375.256,4246.41
1749332970.7579,14:49:30.757,5,false,0.0,4273.846,4396.154,4150.513,4373.974,4245.256
1749332970.7657,14:49:30.765,6,false,0.0,4294.487,4417.308,4183.077,4396.154,4243.718
1749332970.7735,14:49:30.773,7,false,0.0,4296.923,4425.0,4169.615,4426.923,4239.744
1749332970.7814,14:49:30.781,8,false,0.0,4249.231,4392.692,4107.436,4446.795,4231.026
1749332970.7892,14:49:30.789,9,false,0.0,4220.385,4377.308,4085.641,4450.513,4227.949
1749332970.797,14:49:30.797,10,false,0.0,4254.872,4413.333,4139.744,4458.333,4235.0
1749332970.8048,14:49:30.804,11,false,0.0,4271.667,4424.359,4169.231,4472.436,4237.308
1749332970.8127,14:49:30.812,12,false,0.0,4237.949,4383.974,4118.462,4461.154,4225.128
1749332970.8205,14:49:30.820,13,false,0.0,4234.359,4377.692,4092.179,4439.103,4221.667
1749332970.8284,14:49:30.828,14,false,0.0,4263.462,4411.923,4125.641,4446.538,4241.538
1749332970.8362,14:49:30.836,15,false,0.0,4262.436,4414.231,4128.205,4446.667,4256.795
1749332970.8441,14:49:30.844,16,false,0.0,4264.103,4407.821,4123.462,4412.564,4259.487
1749332970.8519,14:49:30.851,17,false,0.0,4296.923,4426.026,4157.051,4399.615,4271.154
1749332970.8597,14:49:30.859,18,false,0.0,4304.487,4421.667,4156.538,4408.59,4278.59
1749332970.8675,14:49:30.867,19,false,0.0,4293.846,4408.59,4138.205,4391.154,4270.641
1749332970.8754,14:49:30.875,20,false,0.0,4302.051,4424.744,4159.359,4378.974,4272.051
1749332970.8832,14:49:30.883,21,false,0.0,4291.667,4422.821,4153.974,4397.692,4278.974
1749332970.891,14:49:30.891,22,false,0.0,4268.974,4402.692,4132.308,4406.282,4273.846
1749332970.8988,14:49:30.898,23,false,0.0,4272.179,4411.41,4156.538,4405.641,4269.744
1749332970.9068,14:49:30.906,24,false,0.0,4261.41,4413.077,4158.077,4418.974,4265.641
1749332970.9146,14:49:30.914,25,false,0.0,4238.846,4400.513,4137.821,4430.513,4254.615
1749332970.9224,14:49:30.922,26,false,0.0,4254.487,4421.538,4162.692,4440.641,4259.359
1749332970.9302,14:49:30.930,27,false,0.0,4266.41,4441.538,4172.051,4458.462,4281.538
1749332970.9381,14:49:30.938,28,false,0.0,4252.949,4430.769,4158.718,4469.231,4294.487
1749332970.9459,14:49:30.945,29,false,0.0,4263.974,4431.795,4179.615,4468.205,4291.154
1749332970.9537,14:49:30.953,30,false,0.0,4280.513,4445.256,4179.359,4459.359,4286.282
1749332970.9615,14:49:30.961,31,false,0.0,4281.41,4453.974,4169.359,4446.923,4297.949
1749332970.9692,14:49:30.969,32,false,0.0,4297.692,4466.026,4211.667,4441.282,4318.974
1749332970.977,14:49:30.977,33,false,0.0,4303.846,4464.615,4221.282,4435.128,4320.128
1749332970.9849,14:49:30.984,34,false,0.0,4278.718,4453.077,4174.103,4420.0,4304.744
1749332970.9927,14:49:30.992,35,false,0.0,4262.308,4456.667,4160.0,4411.667,4295.513
1749332971.0006,14:49:31.000,36,false,0.0,4261.026,4455.897,4165.641,4415.385,4293.974
1749332971.0084,14:49:31.008,37,false,0.0,4274.615,4444.615,4170.128,4420.641,4303.718
1749332971.0162,14:49:31.016,38,false,0.0,4309.231,4446.154,4193.846,4424.872,4316.026
1749332971.024,14:49:31.024,39,false,0.0,4317.051,4446.282,4193.59,4429.103,4306.154
1749332971.0317,14:49:31.031,40,false,0.0,4292.949,4437.821,4173.462,4439.487,4291.154
1749332971.0395,14:49:31.039,41,false,0.0,4295.385,4439.231,4180.897,4454.872,4293.462
1749332971.0473,14:49:31.047,42,false,0.0,4310.897,4440.897,4187.692,4462.051,4293.718
1749332971.0551,14:49:31.055,43,false,0.0,4304.487,4437.564,4187.308,4468.077,4289.615
1749332971.0629,14:49:31.062,44,false,0.0,4301.154,4441.795,4200.769,4478.462,4292.436
1749332971.0707,14:49:31.070,45,false,0.0,4303.333,4442.179,4200.897,4472.949,4290.256
1749332971.0785,14:49:31.078,46,false,0.0,4294.487,4440.769,4195.256,4452.821,4289.487
1749332971.0863,14:49:31.086,47,false,0.0,4295.897,4453.077,4207.821,4438.462,4301.538
1749332971.094,14:49:31.094,48,false,0.0,4307.821,4456.795,4213.462,4432.051,4307.308
1749332971.1018,14:49:31.101,49,false,0.0,4303.077,4445.897,4207.692,4428.205,4301.667
1749332971.1096,14:49:31.109,50,false,0.0,4291.282,4455.385,4204.744,4417.692,4298.462
1749332971.1174,14:49:31.117,51,false,0.0,4296.923,4475.897,4204.615,4397.821,4298.462
1749332971.1251,14:49:31.125,52,false,0.0,4309.487,4473.205,4214.487,4393.205,4300.128
1749332971.1329,14:49:31.132,53,false,0.0,4303.974,4466.41,4216.282,4406.538,4301.923
1749332971.1408,14:49:31.140,54,false,0.0,4287.949,4474.487,4203.846,4410.769,4305.385
1749332971.1486,14:49:31.148,55,false,0.0,4292.692,4481.795,4219.359,4413.205,4323.077
1749332971.1565,14:49:31.156,56,false,0.0,4314.359,4489.615,4255.128,4434.359,4345.385
1749332971.1643,14:49:31.164,57,false,0.0,4317.949,4492.051,4259.872,4458.205,4343.333
1749332971.1721,14:49:31.172,58,false,0.0,4302.436,4467.051,4227.051,4467.821,4315.641
1749332971.1799,14:49:31.179,59,false,0.0,4294.744,4443.205,4177.051,4465.385,4292.436
1749332971.1878,14:49:31.187,60,false,0.0,4302.564,4454.872,4158.462,4458.077,4301.667
1749332971.1956,14:49:31.195,61,false,0.0,4315.897,4473.59,4201.538,4454.231,4325.769
1749332971.2034,14:49:31.203,62,false,0.0,4318.718,4480.128,4235.769,4448.846,4316.282
1749332971.2112,14:49:31.211,63,false,0.0,4306.026,4486.667,4223.718,4428.974,4285.256
1749332971.2192,14:49:31.219,64,false,0.0,4300.385,4482.692,4222.051,4404.872,4285.0
1749332971.227,14:49:31.227,65,false,0.0,4307.051,4466.667,4221.154,4391.923,4300.641
1749332971.2348,14:49:31.234,66,false,0.0,4305.256,4468.205,4201.026,4385.128,4300.0
1749332971.2426,14:49:31.242,67,false,0.0,4310.128,4490.897,4224.231,4379.615,4307.821
1749332971.2505,14:49:31.250,68,false,0.0,4333.974,4503.205,4262.308,4382.308,4325.769
1749332971.2583,14:49:31.258,69,false,0.0,4334.487,4488.205,4236.282,4394.487,4324.744
1749332971.2661,14:49:31.266,70,false,0.0,4309.231,4473.462,4214.231,4409.359,4316.282
1749332971.2739,14:49:31.273,71,false,0.0,4305.128,4483.974,4239.487,4423.718,4311.538
1749332971.2818,14:49:31.281,72,false,0.0,4308.077,4490.0,4227.821,4438.333,4297.949
1749332971.2896,14:49:31.289,73,false,0.0,4294.487,4477.821,4196.667,4453.077,4291.41
1749332971.2975,14:49:31.297,74,false,0.0,4300.0,4483.974,4217.564,4464.615,4303.462
1749332971.3053,14:49:31.305,75,false,0.0,4324.359,4498.462,4233.59,4467.051,4315.513
1749332971.3132,14:49:31.313,76,false,0.0,4330.897,4491.795,4219.615,4461.282,4328.974
1749332971.321,14:49:31.321,77,false,0.0,4330.385,4493.077,4234.872,4457.179,4340.897
1749332971.3288,14:49:31.328,78,false,0.0,4332.179,4506.41,4247.821,4455.256,4325.769
1749332971.3366,14:49:31.336,79,false,0.0,4323.974,4501.923,4228.846,4445.256,4305.128
1749332971.3443,14:49:31.344,80,false,0.0,4323.974,4495.641,4237.051,4427.308,4313.462
1749332971.3521,14:49:31.352,81,false,0.0,4338.59,4494.231,4257.179,4408.846,4322.692
1749332971.3599,14:49:31.359,82,false,0.0,4344.744,4483.333,4244.103,4396.538,4312.564
1749332971.3677,14:49:31.367,83,false,0.0,4345.256,4486.795,4240.256,4397.821,4308.59
1749332971.3755,14:49:31.375,84,false,0.0,4342.821,4498.333,4243.59,4399.615,4307.692
1749332971.3833,14:49:31.383,85,false,0.0,4324.487,4488.59,4217.692,4393.462,4293.205
1749332971.3911,14:49:31.391,86,false,0.0,4310.256,4485.769,4210.128,4408.974,4286.41
1749332971.3989,14:49:31.398,87,false,0.0,4313.974,4493.974,4231.282,4445.513,4295.513
1749332971.4066,14:49:31.406,88,false,0.0,4310.513,4480.128,4224.872,4453.333,4297.692
1749332971.4144,14:49:31.414,89,false,0.0,4305.769,4478.077,4216.154,4441.41,4295.641
1749332971.4222,14:49:31.422,90,false,0.0,4319.487,4503.718,4237.692,4454.872,4303.846
1749332971.43,14:49:31.430,91,false,0.0,4319.103,4501.923,4238.718,4471.538,4303.718
1749332971.4377,14:49:31.437,92,false,0.0,4292.308,4481.923,4212.436,4458.718,4279.231
1749332971.4455,14:49:31.445,93,false,0.0,4284.487,4492.692,4205.897,4436.282,4256.41
1749332971.4533,14:49:31.453,94,false,0.0,4298.59,4509.231,4211.154,4419.359,4263.205
1749332971.4612,14:49:31.461,95,false,0.0,4301.795,4505.897,4207.692,4406.154,4284.744
1749332971.4689,14:49:31.468,96,false,0.0,4306.282,4503.077,4211.41,4397.308,4291.154
1749332971.4767,14:49:31.476,97,false,0.0,4319.744,4502.692,4218.59,4383.974,4280.128
1749332971.4845,14:49:31.484,98,false,0.0,4314.359,4492.949,4209.872,4368.462,4268.974
1749332971.4923,14:49:31.492,99,false,0.0,4300.513,4475.897,4197.051,4365.897,4265.0
1749332971.5,14:49:31.500,100,false,0.0,4307.692,4461.923,4198.974,4371.282,4265.128
1749332971.5078,14:49:31.507,101,false,0.0,4322.051,4470.385,4213.205,4382.436,4269.872
1749332971.5156,14:49:31.515,102,false,0.0,4322.692,4490.897,4221.538,4407.564,4275.0
1749332971.5234,14:49:31.523,103,false,0.0,4314.744,4484.487,4209.615,4431.795,4272.179
1749332971.5313,14:49:31.531,104,false,0.0,4314.487,4467.308,4198.718,4446.026,4273.462
1749332971.5392,14:49:31.539,105,false,0.0,4329.872,4480.641,4217.692,4461.41,4285.641
1749332971.547,14:49:31.547,106,false,0.0,4338.462,4497.692,4236.667,4467.308,4284.615
1749332971.5548,14:49:31.554,107,false,0.0,4325.641,4488.462,4223.974,4457.821,4269.872
1749332971.5627,14:49:31.562,108,false,0.0,4328.333,4480.769,4216.026,4457.564,4271.667
1749332971.5705,14:49:31.570,109,false,0.0,4357.308,4481.538,4226.282,4464.872,4279.872
1749332971.5783,14:49:31.578,110,false,0.0,4365.128,4475.0,4214.359,4452.949,4274.359
1749332971.5861,14:49:31.586,111,false,0.0,4349.615,4477.436,4196.154,4431.282,4277.564
1749332971.594,14:49:31.594,112,false,0.0,4347.692,4485.769,4209.615,4420.897,4289.231
1749332971.6018,14:49:31.601,113,false,0.0,4347.308,4479.744,4220.256,4413.718,4282.436
1749332971.6096,14:49:31.609,114,false,0.0,4336.923,4485.769,4208.974,4404.231,4275.513
1749332971.6175,14:49:31.617,115,false,0.0,4341.154,4511.026,4212.949,4401.282,4286.41
1749332971.6254,14:49:31.625,116,false,0.0,4353.333,4511.667,4227.436,4405.641,4292.436
1749332971.6332,14:49:31.633,117,false,0.0,4349.744,4491.923,4223.333,4411.41,4290.641
1749332971.641,14:49:31.641,118,false,0.0,4343.333,4484.615,4215.641,4412.949,4293.077
1749332971.6488,14:49:31.648,119,false,0.0,4346.154,4477.436,4215.256,4414.744,4290.513
1749332971.6567,14:49:31.656,120,false,0.0,4351.795,4473.59,4213.077,4427.051,4290.769
1749332971.6645,14:49:31.664,121,false,0.0,4357.821,4489.744,4216.282,4439.615,4307.051
1749332971.6723,14:49:31.672,122,false,0.0,4356.795,4493.59,4223.333,4438.462,4312.692
1749332971.6801,14:49:31.680,123,false,0.0,4349.231,4478.333,4219.103,4440.256,4299.231
1749332971.688,14:49:31.688,124,false,0.0,4354.231,4481.154,4216.026,4450.769,4299.487
1749332971.6959,14:49:31.695,125,false,0.0,4364.744,4487.564,4226.282,4446.026,4310.897
1749332971.7037,14:49:31.703,126,false,0.0,4360.385,4478.462,4231.41,4424.615,4307.692
1749332971.7115,14:49:31.711,127,false,0.0,4351.282,4482.692,4221.667,4407.821,4301.026
1749332971.7192,14:49:31.719,0,false,0.0,4347.692,4494.615,4212.308,4398.462,4297.949
1749332971.727,14:49:31.727,1,false,0.0,4343.718,4492.949,4211.667,4391.667,4288.718
1749332971.7348,14:49:31.734,2,false,0.0,4342.821,4499.359,4216.795,4389.103,4289.615
1749332971.7426,14:49:31.742,3,false,0.0,4340.128,4507.436,4220.641,4388.846,4303.205
1749332971.7503,14:49:31.750,4,false,0.0,4334.744,4495.385,4219.103,4390.385,4303.59
1749332971.7581,14:49:31.758,5,false,0.0,4345.769,4497.821,4222.692,4400.641,4298.718
1749332971.7659,14:49:31.765,6,false,0.0,4360.769,4517.949,4231.026,4418.333,4302.436
1749332971.7738,14:49:31.773,7,false,0.0,4355.897,4509.872,4225.385,4427.179,4300.256
1749332971.7815,14:49:31.781,8,false,0.0,4356.923,4493.462,4219.103,4428.462,4301.667
1749332971.7893,14:49:31.789,9,false,0.0,4371.795,4502.949,4233.974,4446.923,4317.436
1749332971.7971,14:49:31.797,10,false,0.0,4368.718,4507.564,4243.718,4469.872,4322.308
1749332971.8049,14:49:31.804,11,false,0.0,4363.59,4499.615,4233.077,4462.949,4316.795
1749332971.8126,14:49:31.812,12,false,0.0,4383.718,4504.359,4231.41,4448.333,4321.667
1749332971.8204,14:49:31.820,13,false,0.0,4414.103,4510.128,4248.077,4453.718,4331.667
1749332971.8282,14:49:31.828,14,false,0.0,4458.462,4511.538,4272.949,4453.205,4354.487
1749332971.836,14:49:31.836,15,false,0.0,4516.154,4517.051,4289.359,4435.128,4387.821
1749332971.8437,14:49:31.843,16,false,0.0,4540.385,4507.179,4256.923,4413.846,4390.769
1749332971.8516,14:49:31.851,17,false,0.0,4540.513,4492.308,4204.872,4393.077,4376.41
1749332971.8594,14:49:31.859,18,false,0.0,4572.179,4507.821,4225.256,4393.846,4397.179
1749332971.8672,14:49:31.867,19,false,0.0,4608.205,4523.718,4273.846,4420.641,4422.436
1749332971.8749,14:49:31.874,20,false,0.0,4603.59,4504.359,4239.487,4428.205,4402.949
1749332971.8827,14:49:31.882,21,false,0.0,4592.436,4487.821,4187.564,4421.538,4376.282
1749332971.8905,14:49:31.890,22,false,0.0,4597.564,4501.538,4214.487,4444.872,4380.256
1749332971.8983,14:49:31.898,23,false,0.0,4599.615,4512.949,4242.179,4470.769,4389.231
1749332971.906,14:49:31.906,24,false,0.0,4605.128,4509.615,4223.462,4466.538,4385.641
1749332971.9138,14:49:31.913,25,false,0.0,4610.897,4515.513,4232.949,4468.59,4381.026
1749332971.9216,14:49:31.921,26,false,0.0,4584.103,4519.615,4249.872,4484.744,4370.385
1749332971.9295,14:49:31.929,27,false,0.0,4543.59,4495.769,4215.641,4478.718,4344.872
1749332971.9374,14:49:31.937,28,false,0.0,4532.179,4481.154,4206.282,4460.513,4327.436
1749332971.9452,14:49:31.945,29,false,0.0,4531.923,4507.436,4247.821,4452.436,4335.641
1749332971.953,14:49:31.953,30,false,0.0,4517.051,4519.615,4246.282,4435.385,4343.718
1749332971.9608,14:49:31.960,31,false,0.0,4506.667,4500.513,4222.436,4407.179,4336.282
1749332971.9687,14:49:31.968,32,false,0.0,4499.744,4506.923,4243.077,4391.154,4331.795
1749332971.9765,14:49:31.976,33,false,0.0,4466.538,4515.0,4245.128,4380.897,4324.615
1749332971.9843,14:49:31.984,34,false,0.0,4421.026,4483.077,4209.615,4366.795,4301.923
1749332971.9921,14:49:31.992,35,false,0.0,4396.026,4473.718,4209.359,4365.769,4289.359
1749332972.0,14:49:32.000,36,false,0.0,4381.667,4500.897,4224.231,4376.923,4295.385
1749332972.0079,14:49:32.007,37,false,0.0,4365.0,4495.385,4216.923,4383.462,4295.256
1749332972.0157,14:49:32.015,38,false,0.0,4359.231,4480.256,4227.692,4393.205,4294.872
1749332972.0235,14:49:32.023,39,false,0.0,4358.974,4503.846,4249.103,4413.333,4305.897
1749332972.0314,14:49:32.031,40,false,0.0,4346.667,4521.026,4251.41,4431.282,4306.923
1749332972.0392,14:49:32.039,41,false,0.0,4328.718,4511.026,4250.256,4441.026,4293.974
1749332972.047,14:49:32.047,42,false,0.0,4309.231,4505.641,4226.026,4447.308,4282.821
1749332972.0548,14:49:32.054,43,false,0.0,4288.462,4501.282,4180.128,4452.949,4273.077
1749332972.0627,14:49:32.062,44,false,0.0,4286.41,4498.333,4185.769,4459.615,4273.846
1749332972.0705,14:49:32.070,45,false,0.0,4308.974,4512.179,4234.615,4460.128,4294.359
1749332972.0783,14:49:32.078,46,false,0.0,4328.974,4516.795,4245.641,4445.513,4306.026
1749332972.0862,14:49:32.086,47,false,0.0,4321.282,4493.333,4213.462,4430.641,4290.385
1749332972.0939,14:49:32.093,48,false,0.0,4288.462,4473.718,4180.641,4431.282,4277.436
1749332972.1017,14:49:32.101,49,false,0.0,4272.821,4479.744,4183.974,4423.846,4286.667
1749332972.1095,14:49:32.109,50,false,0.0,4301.795,4491.923,4227.949,4396.154,4296.41
1749332972.1173,14:49:32.117,51,false,0.0,4318.846,4486.538,4246.923,4394.359,4292.692
1749332972.125,14:49:32.125,52,false,0.0,4290.897,4474.487,4224.487,4426.538,4291.282
1749332972.1328,14:49:32.132,53,false,0.0,4287.564,4483.205,4239.359,4433.462,4297.949
1749332972.1406,14:49:32.140,54,false,0.0,4312.692,4500.897,4275.641,4428.333,4301.923
1749332972.1484,14:49:32.148,55,false,0.0,4295.256,4497.051,4262.436,4465.0,4305.641
1749332972.1561,14:49:32.156,56,false,0.0,4274.487,4487.821,4250.897,4492.308,4309.872
1749332972.164,14:49:32.164,57,false,0.0,4297.949,4493.077,4270.897,4472.051,4303.077
1749332972.1718,14:49:32.171,58,false,0.0,4297.692,4494.487,4261.154,4466.923,4295.641
1749332972.1796,14:49:32.179,59,false,0.0,4269.487,4490.128,4248.974,4476.538,4302.051
1749332972.1873,14:49:32.187,60,false,0.0,4274.103,4497.308,4270.0,4463.846,4304.615
1749332972.1951,14:49:32.195,61,false,0.0,4277.821,4503.718,4262.949,4465.897,4295.641
1749332972.2029,14:49:32.202,62,false,0.0,4265.385,4500.128,4245.0,4470.897,4295.256
1749332972.2107,14:49:32.210,63,false,0.0,4281.795,4500.769,4270.256,4437.436,4304.615
1749332972.2184,14:49:32.218,64,false,0.0,4288.846,4501.795,4274.359,4418.846,4305.385
1749332972.2262,14:49:32.226,65,false,0.0,4254.615,4490.0,4235.897,4428.718,4291.795
1749332972.234,14:49:32.234,66,false,0.0,4233.077,4478.718,4218.59,4413.974,4271.667
1749332972.2419,14:49:32.241,67,false,0.0,4232.436,4487.436,4208.846,4401.923,4263.846
1749332972.2496,14:49:32.249,68,false,0.0,4236.667,4507.949,4194.744,4417.692,4280.128
1749332972.2574,14:49:32.257,69,false,0.0,4263.718,4516.154,4215.513,4428.205,4307.051
1749332972.2652,14:49:32.265,70,false,0.0,4281.795,4509.744,4236.282,4448.333,4322.308
1749332972.273,14:49:32.273,71,false,0.0,4266.282,4504.359,4223.59,4482.179,4315.897
1749332972.2807,14:49:32.280,72,false,0.0,4258.974,4498.205,4220.0,4486.795,4296.282
1749332972.2885,14:49:32.288,73,false,0.0,4261.923,4491.282,4227.308,4481.538,4283.718
1749332972.2963,14:49:32.296,74,false,0.0,4256.026,4499.487,4222.564,4491.795,4280.128
1749332972.3041,14:49:32.304,75,false,0.0,4265.0,4507.179,4218.333,4483.205,4274.359
1749332972.312,14:49:32.312,76,false,0.0,4283.205,4491.795,4214.103,4458.333,4275.0
1749332972.3199,14:49:32.319,77,false,0.0,4282.949,4481.795,4212.821,4445.513,4287.179
1749332972.3277,14:49:32.327,78,false,0.0,4274.615,4490.0,4222.821,4429.359,4292.051
1749332972.3355,14:49:32.335,79,false,0.0,4266.667,4486.282,4216.154,4406.282,4288.333
1749332972.3434,14:49:32.343,80,false,0.0,4261.795,4482.051,4201.795,4397.436,4293.205
1749332972.3512,14:49:32.351,81,false,0.0,4266.154,4500.0,4214.359,4398.077,4299.487
1749332972.359,14:49:32.359,82,false,0.0,4261.795,4508.59,4218.077,4396.667,4294.359
1749332972.3668,14:49:32.366,83,false,0.0,4248.205,4497.692,4194.615,4395.897,4290.513
1749332972.3747,14:49:32.374,84,false,0.0,4251.154,4494.744,4193.077,4398.333,4294.231
1749332972.3825,14:49:32.382,85,false,0.0,4263.59,4493.59,4209.744,4406.154,4294.487
1749332972.3903,14:49:32.390,86,false,0.0,4266.026,4484.744,4206.026,4418.462,4291.154
1749332972.3981,14:49:32.398,87,false,0.0,4262.436,4485.256,4196.41,4430.897,4288.846
1749332972.4061,14:49:32.406,88,false,0.0,4256.923,4492.308,4192.051,4439.872,4282.821
1749332972.4139,14:49:32.413,89,false,0.0,4254.744,4490.128,4183.974,4440.128,4275.128
1749332972.4217,14:49:32.421,90,false,0.0,4259.615,4481.923,4182.051,4436.795,4273.462
1749332972.4295,14:49:32.429,91,false,0.0,4263.718,4476.026,4187.308,4441.154,4274.744
1749332972.4374,14:49:32.437,92,false,0.0,4268.333,4473.205,4189.744,4440.385,4275.641
1749332972.4452,14:49:32.445,93,false,0.0,4274.231,4469.231,4191.154,4421.923,4277.949
1749332972.453,14:49:32.453,94,false,0.0,4273.077,4465.385,4188.333,4408.974,4279.231
1749332972.4608,14:49:32.460,95,false,0.0,4273.59,4471.538,4187.051,4408.077,4280.897
1749332972.4685,14:49:32.468,96,false,0.0,4281.923,4484.487,4203.974,4395.385,4290.769
1749332972.4763,14:49:32.476,97,false,0.0,4284.487,4488.718,4219.487,4383.077,4302.179
1749332972.4842,14:49:32.484,98,false,0.0,4276.795,4478.59,4206.154,4395.128,4297.564
1749332972.492,14:49:32.492,99,false,0.0,4266.538,4465.513,4191.667,4407.821,4282.692
1749332972.4997,14:49:32.499,100,false,0.0,4260.513,4472.051,4209.615,4405.513,4283.205
1749332972.5075,14:49:32.507,101,false,0.0,4264.103,4487.821,4233.462,4409.487,4299.231
1749332972.5153,14:49:32.515,102,false,0.0,4270.769,4470.513,4225.641,4421.282,4308.077
1749332972.5231,14:49:32.523,103,false,0.0,4274.103,4443.718,4201.667,4423.333,4307.692
1749332972.5308,14:49:32.530,104,false,0.0,4271.667,4458.077,4196.538,4422.436,4306.41
1749332972.5386,14:49:32.538,105,false,0.0,4261.667,4471.795,4206.667,4432.308,4302.564
1749332972.5464,14:49:32.546,106,false,0.0,4261.41,4451.795,4212.821,4445.256,4309.487
1749332972.5542,14:49:32.554,107,false,0.0,4274.487,4448.333,4219.103,4450.641,4333.974
1749332972.562,14:49:32.562,108,false,0.0,4268.077,4454.872,4224.359,4450.385,4347.308
1749332972.5698,14:49:32.569,109,false,0.0,4254.103,4431.923,4216.667,4438.59,4341.026
1749332972.5776,14:49:32.577,110,false,0.0,4269.487,4421.026,4210.0,4410.769,4335.641
1749332972.5854,14:49:32.585,111,false,0.0,4277.051,4438.974,4214.487,4392.308,4323.846
1749332972.5931,14:49:32.593,112,false,0.0,4248.205,4440.385,4207.308,4387.949,4301.538
1749332972.6009,14:49:32.600,113,false,0.0,4233.59,4435.513,4191.795,4369.487,4294.744
1749332972.6087,14:49:32.608,114,false,0.0,4245.513,4448.846,4201.795,4360.769,4301.282
1749332972.6165,14:49:32.616,115,false,0.0,4247.692,4458.718,4225.385,4393.462,4303.077
1749332972.6242,14:49:32.624,116,false,0.0,4248.333,4470.513,4232.564,4429.744,4310.128
1749332972.632,14:49:32.632,117,false,0.0,4267.564,4502.821,4241.026,4464.103,4327.308
1749332972.6399,14:49:32.639,118,false,0.0,4284.872,4527.821,4259.359,4526.795,4336.154
1749332972.6477,14:49:32.647,119,false,0.0,4275.641,4525.513,4254.744,4576.154,4322.692
1749332972.6556,14:49:32.655,120,false,0.0,4255.897,4521.795,4234.872,4590.897,4296.538
1749332972.6634,14:49:32.663,121,false,0.0,4256.795,4531.026,4230.641,4612.051,4288.077
1749332972.6712,14:49:32.671,122,false,0.0,4260.0,4523.974,4216.667,4614.615,4298.333
1749332972.679,14:49:32.679,123,false,0.0,4240.128,4485.897,4181.026,4574.359,4295.897
1749332972.6869,14:49:32.686,124,false,0.0,4231.026,4453.462,4169.231,4545.256,4284.615
1749332972.6947,14:49:32.694,125,false,0.0,4233.59,4445.769,4174.103,4523.846,4276.667
1749332972.7025,14:49:32.702,126,false,0.0,4206.538,4433.974,4153.205,4476.667,4251.667
1749332972.7103,14:49:32.710,127,false,0.0,4185.256,4416.41,4133.333,4446.667,4227.308
1749332972.7183,14:49:32.718,0,false,0.0,4200.128,4415.897,4140.385,4444.231,4234.487
1749332972.7261,14:49:32.726,1,false,0.0,4197.692,4414.359,4140.641,4426.795,4238.462
1749332972.7339,14:49:32.733,2,false,0.0,4174.615,4390.513,4124.103,4405.256,4213.59
1749332972.7417,14:49:32.741,3,false,0.0,4172.308,4367.821,4112.179,4396.538,4195.641
1749332972.7496,14:49:32.749,4,false,0.0,4176.923,4367.692,4103.59,4390.128,4199.487
1749332972.7574,14:49:32.757,5,false,0.0,4179.231,4371.667,4091.795,4398.462,4199.744
1749332972.7652,14:49:32.765,6,false,0.0,4183.077,4359.103,4084.615,4416.154,4185.256
1749332972.773,14:49:32.773,7,false,0.0,4171.026,4345.513,4093.974,4420.128,4176.026
1749332972.7809,14:49:32.780,8,false,0.0,4161.795,4343.718,4106.154,4422.308,4181.41
1749332972.7887,14:49:32.788,9,false,0.0,4170.769,4336.41,4093.718,4423.718,4175.385
1749332972.7966,14:49:32.796,10,false,0.0,4166.538,4331.41,4082.564,4414.231,4160.0
1749332972.8044,14:49:32.804,11,false,0.0,4154.872,4350.385,4101.923,4411.795,4168.718
1749332972.8123,14:49:32.812,12,false,0.0,4156.41,4363.59,4103.205,4410.0,4180.385
1749332972.8201,14:49:32.820,13,false,0.0,4150.641,4352.308,4078.718,4389.744,4172.949
1749332972.8279,14:49:32.827,14,false,0.0,4145.256,4351.795,4090.256,4375.641,4182.179
1749332972.8357,14:49:32.835,15,false,0.0,4154.487,4360.641,4109.487,4370.897,4195.513
1749332972.8436,14:49:32.843,16,false,0.0,4154.615,4356.667,4090.769,4354.872,4177.051
1749332972.8514,14:49:32.851,17,false,0.0,4157.179,4365.513,4092.821,4349.615,4169.872
1749332972.8592,14:49:32.859,18,false,0.0,4186.026,4387.308,4121.154,4361.026,4189.744
1749332972.867,14:49:32.867,19,false,0.0,4205.256,4385.769,4114.231,4362.692,4191.538
1749332972.8748,14:49:32.874,20,false,0.0,4201.154,4377.949,4101.667,4367.692,4190.0
1749332972.8826,14:49:32.882,21,false,0.0,4210.641,4388.846,4120.128,4386.923,4210.256
1749332972.8904,14:49:32.890,22,false,0.0,4232.692,4394.872,4129.744,4400.897,4222.692
1749332972.8982,14:49:32.898,23,false,0.0,4241.667,4397.179,4127.821,4415.769,4224.615
1749332972.9059,14:49:32.905,24,false,0.0,4240.897,4413.333,4136.795,4433.718,4231.282
1749332972.9137,14:49:32.913,25,false,0.0,4237.051,4417.949,4141.538,4438.59,4230.641
1749332972.9215,14:49:32.921,26,false,0.0,4236.538,4406.795,4143.59,4442.051,4227.821
1749332972.9293,14:49:32.929,27,false,0.0,4250.128,4414.487,4152.436,4443.974,4231.41
1749332972.937,14:49:32.937,28,false,0.0,4263.462,4431.41,4159.487,4424.231,4232.179
1749332972.9448,14:49:32.944,29,false,0.0,4260.256,4429.359,4173.077,4402.179,4239.487
1749332972.9527,14:49:32.952,30,false,0.0,4258.205,4427.564,4187.564,4396.026,4252.564
1749332972.9605,14:49:32.960,31,false,0.0,4264.487,4442.821,4180.897,4386.41,4248.205
1749332972.9682,14:49:32.968,32,false,0.0,4264.872,4460.513,4176.41,4371.538,4240.385
1749332972.976,14:49:32.976,33,false,0.0,4272.051,4472.051,4193.333,4367.179,4248.974
1749332972.9838,14:49:32.983,34,false,0.0,4292.564,4469.872,4206.282,4375.513,4258.462
1749332972.9916,14:49:32.991,35,false,0.0,4296.538,4456.154,4210.128,4390.513,4267.821
1749332972.9993,14:49:32.999,36,false,0.0,4288.333,4458.333,4213.205,4398.205,4280.256
1749332973.0071,14:49:33.007,37,false,0.0,4300.128,4475.641,4208.974,4401.026,4279.231
1749332973.0149,14:49:33.014,38,false,0.0,4316.538,4484.103,4212.564,4419.487,4281.41
1749332973.0227,14:49:33.022,39,false,0.0,4323.333,4490.513,4231.026,4441.795,4308.333
1749332973.0305,14:49:33.030,40,false,0.0,4341.41,4493.846,4237.821,4446.795,4325.897
1749332973.0383,14:49:33.038,41,false,0.0,4357.436,4479.744,4235.256,4448.077,4318.205
1749332973.0461,14:49:33.046,42,false,0.0,4350.641,4474.744,4242.692,4450.513,4316.538
1749332973.0539,14:49:33.053,43,false,0.0,4347.949,4489.103,4248.462,4445.769,4320.513
1749332973.0618,14:49:33.061,44,false,0.0,4355.128,4493.205,4247.949,4440.769,4316.538
1749332973.0696,14:49:33.069,45,false,0.0,4350.897,4499.103,4253.205,4427.821,4320.769
1749332973.0774,14:49:33.077,46,false,0.0,4352.308,4517.179,4261.538,4402.949,4333.077
1749332973.0852,14:49:33.085,47,false,0.0,4366.41,4513.462,4265.513,4393.974,4334.487
1749332973.0931,14:49:33.093,48,false,0.0,4367.308,4501.795,4261.154,4400.897,4330.0
1749332973.1009,14:49:33.100,49,false,0.0,4361.538,4512.308,4253.333,4396.538,4327.051
1749332973.1088,14:49:33.108,50,false,0.0,4367.821,4516.538,4259.872,4392.949,4324.103
1749332973.1166,14:49:33.116,51,false,0.0,4376.538,4515.256,4276.538,4406.154,4332.692
1749332973.1245,14:49:33.124,52,false,0.0,4389.103,4539.103,4284.359,4417.179,4357.949
1749332973.1323,14:49:33.132,53,false,0.0,4409.103,4557.692,4291.923,4422.179,4378.974
1749332973.1401,14:49:33.140,54,false,0.0,4414.231,4547.821,4300.641,4435.897,4381.41
1749332973.1479,14:49:33.147,55,false,0.0,4403.718,4543.718,4294.103,4452.308,4382.179
1749332973.1558,14:49:33.155,56,false,0.0,4406.795,4554.872,4291.538,4459.872,4398.205
1749332973.1636,14:49:33.163,57,false,0.0,4425.0,4559.359,4305.0,4457.821,4408.718
1749332973.1714,14:49:33.171,58,false,0.0,4432.949,4554.103,4303.974,4449.487,4393.59
1749332973.1792,14:49:33.179,59,false,0.0,4426.41,4550.128,4291.795,4444.103,4379.615
1749332973.1872,14:49:33.187,60,false,0.0,4428.077,4556.282,4301.667,4443.077,4388.718
1749332973.195,14:49:33.195,61,false,0.0,4447.692,4567.692,4323.333,4435.128,4402.051
1749332973.2028,14:49:33.202,62,false,0.0,4462.949,4570.0,4333.333,4421.538,4410.385
1749332973.2106,14:49:33.210,63,false,0.0,4458.846,4564.615,4333.205,4414.231,4418.974
1749332973.2185,14:49:33.218,64,false,0.0,4451.667,4561.538,4327.564,4411.026,4416.41
1749332973.2263,14:49:33.226,65,false,0.0,4447.308,4560.385,4318.718,4403.077,4402.308
1749332973.2341,14:49:33.234,66,false,0.0,4434.615,4556.154,4308.462,4394.359,4391.154
1749332973.2419,14:49:33.241,67,false,0.0,4427.308,4546.154,4299.744,4397.051,4383.333
1749332973.2496,14:49:33.249,68,false,0.0,4438.974,4541.538,4305.256,4417.179,4382.821
1749332973.2574,14:49:33.257,69,false,0.0,4440.897,4552.821,4316.41,4443.59,4389.872
1749332973.2652,14:49:33.265,70,false,0.0,4417.308,4558.718,4306.538,4457.821,4383.974
1749332973.2731,14:49:33.273,71,false,0.0,4399.487,4544.872,4286.795,4458.205,4368.205
1749332973.2808,14:49:33.280,72,false,0.0,4406.154,4540.897,4286.538,4460.385,4375.0
1749332973.2886,14:49:33.288,73,false,0.0,4422.564,4555.897,4301.154,4466.538,4401.41
1749332973.2964,14:49:33.296,74,false,0.0,4432.692,4560.769,4314.103,4461.026,4413.462
1749332973.3042,14:49:33.304,75,false,0.0,4427.692,4550.513,4317.308,4446.026,4403.462
1749332973.3119,14:49:33.311,76,false,0.0,4418.077,4541.923,4308.077,4440.513,4388.718
1749332973.3197,14:49:33.319,77,false,0.0,4423.205,4538.846,4299.872,4441.41,4381.41
1749332973.3275,14:49:33.327,78,false,0.0,4430.385,4543.59,4303.333,4436.923,4382.308
1749332973.3353,14:49:33.335,79,false,0.0,4421.923,4547.949,4304.872,4432.564,4380.385
1749332973.343,14:49:33.343,80,false,0.0,4415.769,4533.846,4294.744,4428.205,4367.179
1749332973.3509,14:49:33.350,81,false,0.0,4418.077,4517.949,4285.128,4418.974,4356.41
1749332973.3587,14:49:33.358,82,false,0.0,4412.308,4523.205,4285.513,4417.692,4363.462
1749332973.3665,14:49:33.366,83,false,0.0,4408.718,4524.872,4290.513,4427.564,4371.41
1749332973.3742,14:49:33.374,84,false,0.0,4416.282,4511.282,4293.205,4436.282,4364.615
1749332973.382,14:49:33.382,85,false,0.0,4411.667,4510.769,4291.41,4447.179,4358.205
1749332973.3898,14:49:33.389,86,false,0.0,4392.564,4515.256,4285.128,4462.692,4356.538
1749332973.3976,14:49:33.397,87,false,0.0,4396.795,4505.641,4286.538,4468.846,4356.923
1749332973.4053,14:49:33.405,88,false,0.0,4437.436,4507.436,4299.872,4467.051,4377.692
1749332973.4131,14:49:33.413,89,false,0.0,4474.487,4522.308,4304.359,4471.923,4407.692
1749332973.4209,14:49:33.420,90,false,0.0,4477.692,4527.179,4296.667,4475.128,4411.282
1749332973.4288,14:49:33.428,91,false,0.0,4473.974,4539.103,4297.308,4460.128,4401.923
1749332973.4367,14:49:33.436,92,false,0.0,4482.179,4556.026,4300.256,4437.179,4401.282
1749332973.4445,14:49:33.444,93,false,0.0,4474.872,4545.769,4292.692,4427.179,4395.641
1749332973.4523,14:49:33.452,94,false,0.0,4457.308,4530.769,4286.282,4423.718,4390.128
1749332973.4601,14:49:33.460,95,false,0.0,4464.359,4537.051,4283.974,4413.462,4397.821
1749332973.468,14:49:33.468,96,false,0.0,4473.846,4539.872,4286.154,4403.846,4399.744
1749332973.4758,14:49:33.475,97,false,0.0,4459.103,4532.821,4295.256,4397.564,4391.026
1749332973.4836,14:49:33.483,98,false,0.0,4446.154,4525.769,4286.923,4390.897,4382.692
1749332973.4914,14:49:33.491,99,false,0.0,4440.128,4512.949,4264.872,4394.744,4375.769
1749332973.4993,14:49:33.499,100,false,0.0,4430.769,4510.513,4272.564,4408.59,4380.769
1749332973.5072,14:49:33.507,101,false,0.0,4438.974,4523.333,4295.641,4419.744,4391.154
1749332973.515,14:49:33.515,102,false,0.0,4450.897,4518.205,4291.282,4433.077,4379.487
1749332973.5228,14:49:33.522,103,false,0.0,4433.846,4499.359,4275.256,4446.923,4361.154
1749332973.5307,14:49:33.530,104,false,0.0,4416.026,4495.385,4266.667,4452.308,4356.41
1749332973.5385,14:49:33.538,105,false,0.0,4417.821,4496.282,4256.154,4458.718,4346.795
1749332973.5463,14:49:33.546,106,false,0.0,4412.179,4493.462,4248.59,4462.692,4341.667
1749332973.5541,14:49:33.554,107,false,0.0,4405.256,4497.179,4244.744,4451.667,4356.795
1749332973.562,14:49:33.562,108,false,0.0,4410.385,4502.692,4238.077,4438.974,4360.256
1749332973.5698,14:49:33.569,109,false,0.0,4406.41,4505.897,4236.154,4426.667,4352.308
1749332973.5776,14:49:33.577,110,false,0.0,4398.205,4508.59,4235.0,4408.205,4366.538
1749332973.5855,14:49:33.585,111,false,0.0,4403.846,4503.718,4233.59,4403.59,4382.564
1749332973.5934,14:49:33.593,112,false,0.0,4407.692,4495.897,4246.41,4409.615,4380.0
1749332973.6012,14:49:33.601,113,false,0.0,4406.538,4494.744,4256.026,4401.026,4378.846
1749332973.609,14:49:33.609,114,false,0.0,4407.179,4492.308,4242.949,4393.205,4375.641
1749332973.6168,14:49:33.616,115,false,0.0,4398.462,4481.795,4233.205,4403.077,4365.513
1749332973.6247,14:49:33.624,116,false,0.0,4395.897,4473.59,4238.59,4418.718,4370.513
1749332973.6325,14:49:33.632,117,false,0.0,4419.231,4478.333,4242.179,4436.538,4386.538
1749332973.6403,14:49:33.640,118,false,0.0,4436.41,4486.41,4245.128,4450.385,4395.128
1749332973.6481,14:49:33.648,119,false,0.0,4422.179,4476.667,4243.077,4453.846,4393.077
1749332973.6558,14:49:33.655,120,false,0.0,4404.359,4459.231,4226.923,4462.436,4382.692
1749332973.6637,14:49:33.663,121,false,0.0,4404.359,4462.949,4222.179,4469.872,4383.846
1749332973.6715,14:49:33.671,122,false,0.0,4408.718,4473.077,4233.462,4458.846,4396.923
1749332973.6793,14:49:33.679,123,false,0.0,4401.923,4465.513,4226.154,4450.769,4384.487
1749332973.687,14:49:33.687,124,false,0.0,4385.385,4459.872,4209.231,4450.128,4358.846
1749332973.6948,14:49:33.694,125,false,0.0,4373.077,4463.974,4213.205,4428.077,4360.128
1749332973.7026,14:49:33.702,126,false,0.0,4372.949,4460.769,4217.692,4397.179,4365.128
1749332973.7104,14:49:33.710,127,false,0.0,4373.59,4458.077,4206.282,4388.462,4357.564
1749332973.7181,14:49:33.718,0,false,0.0,4366.667,4463.077,4203.077,4390.641,4361.026
1749332973.7259,14:49:33.725,1,false,0.0,4364.103,4465.128,4212.436,4389.359,4361.282
1749332973.7337,14:49:33.733,2,false,0.0,4368.59,4468.974,4217.051,4392.308,4354.103
1749332973.7416,14:49:33.741,3,false,0.0,4368.077,4470.513,4215.0,4404.103,4367.308
1749332973.7493,14:49:33.749,4,false,0.0,4368.077,4458.59,4210.0,4420.385,4381.795
1749332973.7571,14:49:33.757,5,false,0.0,4379.359,4454.231,4206.538,4434.359,4383.077
1749332973.7649,14:49:33.764,6,false,0.0,4386.282,4465.385,4209.744,4443.077,4398.718
1749332973.7727,14:49:33.772,7,false,0.0,4378.462,4467.179,4213.846,4454.103,4408.205
1749332973.7804,14:49:33.780,8,false,0.0,4373.077,4465.128,4215.256,4465.513,4388.718
1749332973.7882,14:49:33.788,9,false,0.0,4374.744,4469.744,4215.769,4462.692,4378.59
1749332973.796,14:49:33.796,10,false,0.0,4369.359,4454.615,4209.487,4446.41,4379.487
1749332973.8038,14:49:33.803,11,false,0.0,4358.59,4427.821,4198.974,4427.821,4362.436
1749332973.8117,14:49:33.811,12,false,0.0,4354.744,4432.308,4196.795,4412.179,4351.923
1749332973.8196,14:49:33.819,13,false,0.0,4357.692,4454.359,4202.436,4405.256,4361.282
1749332973.8274,14:49:33.827,14,false,0.0,4357.179,4446.667,4206.538,4402.179,4363.333
1749332973.8352,14:49:33.835,15,false,0.0,4350.513,4423.462,4204.359,4386.923,4361.795
1749332973.8431,14:49:33.843,16,false,0.0,4344.872,4429.231,4197.692,4371.282,4367.692
1749332973.8509,14:49:33.850,17,false,0.0,4339.359,4447.179,4190.897,4377.692,4361.41
1749332973.8587,14:49:33.858,18,false,0.0,4328.333,4435.769,4182.692,4386.795,4340.256
1749332973.8665,14:49:33.866,19,false,0.0,4320.641,4417.179,4173.333,4383.846,4329.872
1749332973.8744,14:49:33.874,20,false,0.0,4318.718,4427.051,4168.846,4396.282,4335.385
1749332973.8822,14:49:33.882,21,false,0.0,4310.513,4437.051,4161.41,4427.051,4332.821
1749332973.89,14:49:33.890,22,false,0.0,4302.308,4422.564,4145.256,4444.231,4317.179
1749332973.8979,14:49:33.897,23,false,0.0,4307.179,4414.872,4140.128,4447.436,4316.282
1749332973.9058,14:49:33.905,24,false,0.0,4316.41,4426.41,4150.769,4451.41,4331.41
1749332973.9136,14:49:33.913,25,false,0.0,4321.795,4436.667,4157.436,4453.333,4333.846
1749332973.9214,14:49:33.921,26,false,0.0,4327.821,4443.077,4159.103,4452.564,4333.205
1749332973.9292,14:49:33.929,27,false,0.0,4330.513,4444.103,4163.205,4442.692,4344.487
1749332973.9371,14:49:33.937,28,false,0.0,4326.667,4431.154,4159.744,4417.308,4343.333
1749332973.9449,14:49:33.944,29,false,0.0,4323.077,4423.333,4150.513,4399.744,4334.103
1749332973.9527,14:49:33.952,30,false,0.0,4322.949,4433.333,4150.769,4399.872,4344.744
1749332973.9605,14:49:33.960,31,false,0.0,4322.692,4436.538,4154.103,4390.385,4348.333
1749332973.9684,14:49:33.968,32,false,0.0,4317.564,4420.385,4145.897,4373.718,4327.564
1749332973.9763,14:49:33.976,33,false,0.0,4308.846,4404.744,4138.974,4380.128,4322.051
1749332973.9841,14:49:33.984,34,false,0.0,4302.436,4404.359,4148.59,4400.513,4332.821
1749332973.9919,14:49:33.991,35,false,0.0,4298.077,4411.795,4155.897,4408.077,4325.128
1749332973.9998,14:49:33.999,36,false,0.0,4289.744,4408.718,4145.641,4410.641,4311.282
1749332974.0076,14:49:34.007,37,false,0.0,4280.256,4392.821,4137.949,4425.641,4305.897
1749332974.0154,14:49:34.015,38,false,0.0,4278.718,4385.128,4142.564,4443.462,4300.385
1749332974.0232,14:49:34.023,39,false,0.0,4287.436,4395.256,4147.949,4446.923,4313.205
1749332974.0309,14:49:34.030,40,false,0.0,4299.615,4411.282,4154.872,4441.154,4341.667
1749332974.0387,14:49:34.038,41,false,0.0,4307.564,4421.795,4159.872,4438.59,4338.077
1749332974.0465,14:49:34.046,42,false,0.0,4306.538,4419.872,4152.308,4434.103,4308.846
1749332974.0543,14:49:34.054,43,false,0.0,4297.949,4409.744,4145.897,4420.256,4304.487
1749332974.0621,14:49:34.062,44,false,0.0,4295.0,4405.641,4148.205,4402.051,4317.308
1749332974.0699,14:49:34.069,45,false,0.0,4304.615,4402.436,4143.333,4382.564,4314.487
1749332974.0777,14:49:34.077,46,false,0.0,4308.077,4391.538,4134.872,4370.513,4304.872
1749332974.0855,14:49:34.085,47,false,0.0,4301.026,4387.051,4133.462,4375.385,4304.359
1749332974.0932,14:49:34.093,48,false,0.0,4306.667,4388.077,4129.744,4379.872,4311.667
1749332974.101,14:49:34.101,49,false,0.0,4320.0,4381.923,4126.667,4373.205,4320.0
1749332974.1088,14:49:34.108,50,false,0.0,4323.077,4384.231,4135.256,4379.872,4319.872
1749332974.1166,14:49:34.116,51,false,0.0,4327.949,4394.487,4142.436,4401.667,4313.462
1749332974.1243,14:49:34.124,52,false,0.0,4328.205,4385.769,4137.179,4409.359,4310.128
1749332974.1321,14:49:34.132,53,false,0.0,4305.513,4374.487,4131.026,4412.692,4303.077
1749332974.14,14:49:34.140,54,false,0.0,4288.205,4386.026,4135.128,4430.385,4290.641
1749332974.1478,14:49:34.147,55,false,0.0,4293.974,4390.385,4140.769,4437.051,4287.436
1749332974.1557,14:49:34.155,56,false,0.0,4295.256,4376.282,4132.051,4424.359,4288.846
1749332974.1635,14:49:34.163,57,false,0.0,4289.487,4377.949,4116.41,4420.513,4280.641
1749332974.1713,14:49:34.171,58,false,0.0,4286.154,4384.872,4113.462,4422.692,4271.795
1749332974.1791,14:49:34.179,59,false,0.0,4274.231,4369.359,4114.487,4413.333,4270.513
1749332974.187,14:49:34.187,60,false,0.0,4265.256,4357.564,4107.692,4404.359,4270.897
1749332974.1948,14:49:34.194,61,false,0.0,4272.949,4361.282,4100.641,4396.154,4275.513
1749332974.2026,14:49:34.202,62,false,0.0,4276.923,4354.231,4089.744,4378.205,4281.538
1749332974.2104,14:49:34.210,63,false,0.0,4270.0,4350.385,4078.333,4370.385,4279.359
1749332974.2184,14:49:34.218,64,false,0.0,4268.077,4366.795,4087.436,4378.59,4276.41
1749332974.2262,14:49:34.226,65,false,0.0,4273.718,4370.256,4102.179,4378.077,4276.795
1749332974.234,14:49:34.234,66,false,0.0,4283.59,4354.231,4101.795,4376.667,4272.051
1749332974.2418,14:49:34.241,67,false,0.0,4288.718,4348.077,4104.103,4397.436,4269.872
1749332974.2497,14:49:34.249,68,false,0.0,4278.205,4343.974,4100.256,4421.667,4271.41
1749332974.2575,14:49:34.257,69,false,0.0,4261.923,4327.564,4068.974,4427.821,4256.154
1749332974.2653,14:49:34.265,70,false,0.0,4253.205,4320.385,4052.692,4426.41,4237.949
1749332974.2731,14:49:34.273,71,false,0.0,4252.821,4329.359,4076.282,4429.359,4247.564
1749332974.281,14:49:34.281,72,false,0.0,4260.128,4331.282,4091.026,4437.051,4264.744
1749332974.2888,14:49:34.288,73,false,0.0,4265.513,4319.359,4083.462,4441.667,4261.795
1749332974.2967,14:49:34.296,74,false,0.0,4264.359,4318.846,4088.077,4433.718,4259.615
1749332974.3045,14:49:34.304,75,false,0.0,4268.718,4337.308,4101.538,4421.41,4273.077
1749332974.3124,14:49:34.312,76,false,0.0,4275.256,4342.051,4106.795,4416.667,4282.949
1749332974.3202,14:49:34.320,77,false,0.0,4273.077,4335.128,4110.897,4409.744,4284.231
1749332974.328,14:49:34.328,78,false,0.0,4268.846,4354.872,4111.282,4394.487,4286.154
1749332974.3358,14:49:34.335,79,false,0.0,4260.769,4374.231,4105.0,4382.179,4286.026
1749332974.3437,14:49:34.343,80,false,0.0,4252.308,4355.128,4103.974,4378.974,4286.154
1749332974.3515,14:49:34.351,81,false,0.0,4262.179,4340.897,4105.769,4380.256,4291.154
1749332974.3593,14:49:34.359,82,false,0.0,4277.051,4346.538,4101.41,4382.436,4290.769
1749332974.3671,14:49:34.367,83,false,0.0,4276.923,4332.949,4098.59,4388.077,4286.41
1749332974.3749,14:49:34.374,84,false,0.0,4280.256,4324.231,4097.949,4403.077,4293.462
1749332974.3827,14:49:34.382,85,false,0.0,4287.179,4341.795,4092.949,4422.308,4299.615
1749332974.3905,14:49:34.390,86,false,0.0,4280.256,4342.436,4093.718,4435.0,4292.436
1749332974.3983,14:49:34.398,87,false,0.0,4277.949,4327.051,4102.179,4439.615,4289.872
1749332974.406,14:49:34.406,88,false,0.0,4283.077,4328.077,4100.256,4437.692,4292.564
1749332974.4138,14:49:34.413,89,false,0.0,4272.564,4335.256,4095.897,4433.462,4284.359
1749332974.4216,14:49:34.421,90,false,0.0,4263.462,4341.538,4106.667,4431.538,4280.256
1749332974.4294,14:49:34.429,91,false,0.0,4266.41,4340.513,4107.692,4423.718,4289.231
1749332974.4371,14:49:34.437,92,false,0.0,4256.538,4315.641,4082.179,4409.359,4289.359
1749332974.4449,14:49:34.444,93,false,0.0,4243.718,4304.615,4067.564,4402.051,4281.538
1749332974.4528,14:49:34.452,94,false,0.0,4248.718,4332.564,4078.077,4394.744,4284.744
1749332974.4606,14:49:34.460,95,false,0.0,4252.051,4349.103,4081.41,4377.436,4288.462
1749332974.4683,14:49:34.468,96,false,0.0,4247.308,4335.769,4074.231,4363.462,4280.513
1749332974.4761,14:49:34.476,97,false,0.0,4243.974,4329.744,4070.769,4362.564,4271.026
1749332974.4839,14:49:34.483,98,false,0.0,4237.692,4333.718,4066.026,4376.538,4265.256
1749332974.4917,14:49:34.491,99,false,0.0,4238.974,4322.308,4068.718,4401.282,4260.769
1749332974.4994,14:49:34.499,100,false,0.0,4248.205,4293.59,4080.0,4413.077,4253.59
1749332974.5072,14:49:34.507,101,false,0.0,4237.308,4281.41,4071.154,4415.897,4238.205
1749332974.515,14:49:34.515,102,false,0.0,4220.128,4305.641,4054.103,4439.615,4227.308
1749332974.5228,14:49:34.522,103,false,0.0,4227.436,4320.385,4063.205,4465.0,4233.846
1749332974.5306,14:49:34.530,104,false,0.0,4237.692,4303.205,4071.923,4465.0,4240.0
1749332974.5384,14:49:34.538,105,false,0.0,4232.436,4302.692,4054.615,4465.769,4231.667
1749332974.5462,14:49:34.546,106,false,0.0,4219.872,4309.872,4042.564,4474.487,4221.282
1749332974.554,14:49:34.554,107,false,0.0,4200.0,4283.205,4049.872,4470.769,4217.949
1749332974.5619,14:49:34.561,108,false,0.0,4187.692,4272.564,4057.179,4463.974,4221.923
1749332974.5697,14:49:34.569,109,false,0.0,4193.974,4306.923,4055.897,4458.846,4226.41
1749332974.5775,14:49:34.577,110,false,0.0,4190.128,4316.282,4042.821,4446.795,4214.744
1749332974.5853,14:49:34.585,111,false,0.0,4170.0,4280.513,4026.026,4440.256,4192.308
1749332974.5932,14:49:34.593,112,false,0.0,4159.231,4261.026,4024.231,4438.974,4183.846
1749332974.601,14:49:34.601,113,false,0.0,4157.051,4276.538,4028.462,4433.718,4188.718
1749332974.6089,14:49:34.608,114,false,0.0,4157.692,4280.513,4016.154,4438.718,4190.513
1749332974.6167,14:49:34.616,115,false,0.0,4158.974,4251.41,3994.872,4451.026,4185.385
1749332974.6246,14:49:34.624,116,false,0.0,4148.974,4234.744,3985.385,4451.667,4175.128
1749332974.6324,14:49:34.632,117,false,0.0,4140.897,4254.231,3988.974,4450.641,4167.308
1749332974.6402,14:49:34.640,118,false,0.0,4150.385,4268.333,3990.513,4457.564,4165.769
1749332974.648,14:49:34.648,119,false,0.0,4156.282,4247.692,3983.333,4460.128,4162.821
1749332974.6559,14:49:34.655,120,false,0.0,4157.308,4208.333,3974.872,4446.41,4158.077
1749332974.6637,14:49:34.663,121,false,0.0,4170.128,4203.333,3969.231,4410.513,4159.487
1749332974.6715,14:49:34.671,122,false,0.0,4169.359,4257.821,3960.641,4366.923,4157.821
1749332974.6793,14:49:34.679,123,false,0.0,4146.795,4271.923,3942.949,4344.872,4140.385
1749332974.6873,14:49:34.687,124,false,0.0,4148.205,4205.641,3926.923,4339.103,4120.897
1749332974.6951,14:49:34.695,125,false,0.0,4179.359,4198.59,3933.205,4321.923,4120.0
1749332974.7029,14:49:34.702,126,false,0.0,4192.821,4242.179,3946.026,4301.282,4125.256
1749332974.7107,14:49:34.710,127,false,0.0,4180.769,4205.897,3936.667,4307.692,4118.462
1749332974.7186,14:49:34.718,0,false,0.0,4168.205,4189.359,3927.692,4333.077,4113.333
1749332974.7264,14:49:34.726,1,false,0.0,4153.974,4249.744,3935.897,4333.846,4113.846
1749332974.7342,14:49:34.734,2,false,0.0,4141.026,4225.385,3933.205,4309.615,4104.872
1749332974.742,14:49:34.742,3,false,0.0,4145.769,4163.205,3927.179,4312.308,4101.154
1749332974.7497,14:49:34.749,4,false,0.0,4151.795,4206.923,3934.487,4343.333,4110.385
1749332974.7575,14:49:34.757,5,false,0.0,4150.513,4245.0,3928.846,4345.897,4108.333
1749332974.7654,14:49:34.765,6,false,0.0,4167.308,4216.667,3915.897,4311.41,4104.103
1749332974.7732,14:49:34.773,7,false,0.0,4183.205,4211.538,3917.051,4287.051,4112.564
1749332974.7809,14:49:34.780,8,false,0.0,4167.436,4209.231,3912.051,4294.103,4111.667
1749332974.7887,14:49:34.788,9,false,0.0,4155.385,4201.026,3905.128,4302.564,4103.846
1749332974.7965,14:49:34.796,10,false,0.0,4160.0,4214.231,3909.231,4280.769,4099.744
1749332974.8043,14:49:34.804,11,false,0.0,4149.359,4185.513,3898.333,4250.256,4081.795
1749332974.812,14:49:34.812,12,false,0.0,4146.538,4158.205,3887.179,4246.538,4072.308
1749332974.8198,14:49:34.819,13,false,0.0,4163.077,4208.205,3896.538,4246.282,4091.41
1749332974.8276,14:49:34.827,14,false,0.0,4152.051,4214.872,3889.359,4227.308,4091.667
1749332974.8354,14:49:34.835,15,false,0.0,4130.128,4158.59,3876.282,4224.487,4068.333
1749332974.8432,14:49:34.843,16,false,0.0,4137.564,4173.718,3891.795,4241.795,4066.667
1749332974.851,14:49:34.851,17,false,0.0,4135.641,4198.205,3894.744,4244.744,4072.051
1749332974.8588,14:49:34.858,18,false,0.0,4113.59,4162.821,3880.0,4242.564,4067.692
1749332974.8666,14:49:34.866,19,false,0.0,4110.897,4181.282,3891.795,4254.615,4073.333
1749332974.8743,14:49:34.874,20,false,0.0,4108.333,4225.256,3899.231,4271.667,4070.256
1749332974.8821,14:49:34.882,21,false,0.0,4081.795,4185.897,3881.667,4293.077,4049.231
1749332974.8899,14:49:34.889,22,false,0.0,4056.41,4154.103,3884.615,4312.179,4047.308
1749332974.8977,14:49:34.897,23,false,0.0,4038.846,4185.128,3898.333,4310.385,4061.795
1749332974.9054,14:49:34.905,24,false,0.0,4024.487,4186.154,3886.923,4300.128,4060.513
1749332974.9132,14:49:34.913,25,false,0.0,4014.872,4163.718,3869.231,4298.077,4041.538
1749332974.9211,14:49:34.921,26,false,0.0,3993.462,4166.154,3859.744,4295.769,4021.026
1749332974.9289,14:49:34.928,27,false,0.0,3975.128,4153.333,3858.333,4289.615,4023.077
1749332974.9368,14:49:34.936,28,false,0.0,3991.795,4139.487,3871.282,4283.59,4048.718
1749332974.9446,14:49:34.944,29,false,0.0,4014.872,4169.615,3884.103,4281.795,4065.128
1749332974.9524,14:49:34.952,30,false,0.0,4014.231,4184.231,3889.744,4284.872,4070.128
1749332974.9602,14:49:34.960,31,false,0.0,4008.974,4154.615,3900.513,4271.538,4081.282
1749332974.9681,14:49:34.968,32,false,0.0,4005.256,4152.051,3906.795,4242.051,4081.538
1749332974.9759,14:49:34.975,33,false,0.0,4000.897,4182.051,3905.769,4241.41,4067.179
1749332974.9837,14:49:34.983,34,false,0.0,4006.41,4189.487,3910.385,4269.231,4063.205
1749332974.9915,14:49:34.991,35,false,0.0,4007.949,4179.744,3909.231,4278.974,4067.564
1749332974.9995,14:49:34.999,36,false,0.0,3994.872,4167.051,3901.026,4280.641,4064.872
1749332975.0073,14:49:35.007,37,false,0.0,3984.872,4148.333,3905.128,4300.897,4057.308
1749332975.0151,14:49:35.015,38,false,0.0,3979.872,4153.333,3910.897,4315.641,4050.769
1749332975.0229,14:49:35.022,39,false,0.0,3975.256,4175.897,3905.513,4314.615,4048.205
1749332975.0308,14:49:35.030,40,false,0.0,3978.974,4168.462,3906.026,4319.487,4047.308
1749332975.0386,14:49:35.038,41,false,0.0,3981.923,4147.821,3913.462,4325.513,4048.462
1749332975.0464,14:49:35.046,42,false,0.0,3977.436,4147.821,3913.974,4318.718,4056.667
1749332975.0542,14:49:35.054,43,false,0.0,3973.718,4158.462,3914.231,4303.077,4057.821
1749332975.0621,14:49:35.062,44,false,0.0,3965.897,4180.0,3920.128,4284.744,4046.41
1749332975.0699,14:49:35.069,45,false,0.0,3963.462,4199.487,3923.205,4272.949,4053.077
1749332975.0777,14:49:35.077,46,false,0.0,3985.641,4187.308,3922.692,4277.179,4077.308
1749332975.0856,14:49:35.085,47,false,0.0,4002.051,4175.0,3926.026,4286.026,4080.513
1749332975.0933,14:49:35.093,48,false,0.0,3987.564,4186.923,3933.077,4283.846,4065.0
1749332975.1011,14:49:35.101,49,false,0.0,3979.744,4192.821,3935.128,4279.744,4058.462
1749332975.1089,14:49:35.108,50,false,0.0,3991.282,4199.103,3931.538,4292.179,4060.256
1749332975.1167,14:49:35.116,51,false,0.0,3990.385,4207.821,3931.538,4316.41,4060.256
1749332975.1244,14:49:35.124,52,false,0.0,3985.128,4181.538,3935.641,4331.538,4057.051
1749332975.1322,14:49:35.132,53,false,0.0,3992.821,4164.103,3939.872,4340.769,4052.436
1749332975.14,14:49:35.140,54,false,0.0,3997.692,4203.718,3947.949,4358.205,4052.821
1749332975.1478,14:49:35.147,55,false,0.0,4000.128,4226.795,3957.692,4369.615,4057.949
1749332975.1555,14:49:35.155,56,false,0.0,4004.359,4203.59,3964.103,4365.0,4062.436
1749332975.1634,14:49:35.163,57,false,0.0,3992.308,4206.923,3969.872,4363.846,4067.564
1749332975.1712,14:49:35.171,58,false,0.0,3976.923,4230.513,3971.538,4365.769,4073.205
1749332975.179,14:49:35.179,59,false,0.0,3979.103,4223.718,3965.513,4354.231,4076.282
1749332975.1867,14:49:35.186,60,false,0.0,3975.385,4217.179,3962.692,4340.641,4075.769
1749332975.1945,14:49:35.194,61,false,0.0,3960.897,4228.333,3962.564,4333.59,4072.564
1749332975.2023,14:49:35.202,62,false,0.0,3960.513,4223.846,3955.128,4326.538,4071.795
1749332975.2101,14:49:35.210,63,false,0.0,3964.231,4221.667,3951.41,4328.205,4078.077
1749332975.2178,14:49:35.217,64,false,0.0,3966.923,4246.795,3963.077,4334.615,4091.282
1749332975.2256,14:49:35.225,65,false,0.0,3985.128,4254.231,3975.256,4333.846,4107.436
1749332975.2334,14:49:35.233,66,false,0.0,3995.641,4230.513,3975.0,4343.718,4112.051
1749332975.2413,14:49:35.241,67,false,0.0,3984.103,4239.231,3973.59,4366.923,4104.231
1749332975.249,14:49:35.249,68,false,0.0,3987.179,4276.795,3982.308,4375.513,4107.436
1749332975.2568,14:49:35.256,69,false,0.0,4004.872,4266.026,3991.154,4372.051,4120.385
1749332975.2646,14:49:35.264,70,false,0.0,4007.179,4228.59,3990.385,4375.0,4121.154
1749332975.2724,14:49:35.272,71,false,0.0,4003.718,4232.821,3988.462,4380.769,4116.795
1749332975.2801,14:49:35.280,72,false,0.0,4002.564,4241.923,3991.282,4387.179,4118.974
1749332975.2879,14:49:35.287,73,false,0.0,3997.564,4233.462,3994.231,4388.205,4123.718
1749332975.2957,14:49:35.295,74,false,0.0,4000.897,4257.692,3998.333,4372.308,4133.205
1749332975.3035,14:49:35.303,75,false,0.0,4006.538,4275.897,3999.487,4354.487,4139.103
1749332975.3114,14:49:35.311,76,false,0.0,3999.487,4243.333,3993.462,4347.308,4132.692
1749332975.3193,14:49:35.319,77,false,0.0,3995.128,4239.615,3995.128,4337.821,4131.538
1749332975.3271,14:49:35.327,78,false,0.0,4001.026,4276.026,4007.692,4325.513,4138.718
1749332975.3349,14:49:35.334,79,false,0.0,4019.615,4275.641,4016.41,4322.179,4146.41
1749332975.3428,14:49:35.342,80,false,0.0,4061.282,4276.026,4027.949,4325.256,4166.41
1749332975.3506,14:49:35.350,81,false,0.0,4093.974,4314.103,4043.077,4332.564,4184.872
1749332975.3584,14:49:35.358,82,false,0.0,4095.641,4317.051,4042.051,4346.026,4177.692
1749332975.3662,14:49:35.366,83,false,0.0,4106.026,4290.641,4034.359,4360.769,4173.205
1749332975.3741,14:49:35.374,84,false,0.0,4124.103,4298.718,4033.59,4368.462,4189.103
1749332975.3819,14:49:35.381,85,false,0.0,4110.128,4307.821,4027.051,4369.359,4191.795
1749332975.3897,14:49:35.389,86,false,0.0,4091.41,4293.974,4026.923,4371.282,4178.333
1749332975.3976,14:49:35.397,87,false,0.0,4101.282,4295.513,4043.974,4373.846,4176.282
1749332975.4055,14:49:35.405,88,false,0.0,4111.667,4299.872,4049.103,4372.179,4180.641
1749332975.4133,14:49:35.413,89,false,0.0,4108.077,4289.103,4042.949,4368.974,4178.59
1749332975.4211,14:49:35.421,90,false,0.0,4105.256,4291.667,4050.385,4356.41,4177.564
1749332975.4289,14:49:35.428,91,false,0.0,4108.974,4299.359,4051.41,4332.179,4179.744
1749332975.4368,14:49:35.436,92,false,0.0,4116.667,4292.436,4036.667,4329.103,4179.615
1749332975.4446,14:49:35.444,93,false,0.0,4117.051,4297.179,4036.026,4345.513,4178.205
1749332975.4524,14:49:35.452,94,false,0.0,4112.179,4307.821,4049.744,4337.308,4177.564
1749332975.4602,14:49:35.460,95,false,0.0,4119.359,4295.385,4058.974,4325.769,4177.308
1749332975.4679,14:49:35.467,96,false,0.0,4125.897,4295.641,4064.103,4351.41,4175.641
1749332975.4758,14:49:35.475,97,false,0.0,4122.308,4322.051,4063.462,4376.282,4174.103
1749332975.4836,14:49:35.483,98,false,0.0,4129.872,4319.359,4063.462,4374.487,4180.897
1749332975.4914,14:49:35.491,99,false,0.0,4143.205,4303.462,4080.385,4376.667,4195.769
1749332975.4992,14:49:35.499,100,false,0.0,4148.333,4322.179,4098.718,4386.923,4206.923
1749332975.507,14:49:35.507,101,false,0.0,4157.564,4331.282,4097.692,4398.333,4209.487
1749332975.5148,14:49:35.514,102,false,0.0,4158.718,4321.538,4095.0,4415.128,4207.949
1749332975.5226,14:49:35.522,103,false,0.0,4146.538,4341.538,4100.385,4416.538,4206.667
1749332975.5303,14:49:35.530,104,false,0.0,4149.872,4350.897,4096.41,4396.795,4209.744
1749332975.5381,14:49:35.538,105,false,0.0,4158.974,4327.179,4089.487,4377.179,4214.359
1749332975.5459,14:49:35.545,106,false,0.0,4154.359,4333.718,4097.308,4358.333,4213.077
1749332975.5538,14:49:35.553,107,false,0.0,4159.487,4355.256,4105.128,4341.795,4211.026
1749332975.5615,14:49:35.561,108,false,0.0,4169.231,4355.769,4105.385,4336.154,4216.667
1749332975.5693,14:49:35.569,109,false,0.0,4167.308,4357.051,4117.308,4334.231,4219.744
1749332975.5771,14:49:35.577,110,false,0.0,4178.077,4332.821,4130.641,4338.205,4212.692
1749332975.5849,14:49:35.584,111,false,0.0,4190.256,4305.897,4121.41,4343.462,4208.205
1749332975.5926,14:49:35.592,112,false,0.0,4178.077,4356.538,4112.564,4335.385,4211.538
1749332975.6004,14:49:35.600,113,false,0.0,4175.385,4394.231,4122.436,4342.179,4214.487
1749332975.6082,14:49:35.608,114,false,0.0,4189.744,4338.846,4123.59,4372.564,4216.154
1749332975.616,14:49:35.616,115,false,0.0,4181.667,4318.846,4109.872,4380.0,4213.846
1749332975.6237,14:49:35.623,116,false,0.0,4164.744,4356.923,4101.538,4368.974,4206.154
1749332975.6316,14:49:35.631,117,false,0.0,4170.769,4347.308,4098.077,4375.0,4206.41
1749332975.6394,14:49:35.639,118,false,0.0,4180.385,4338.077,4100.769,4380.513,4217.051
1749332975.6472,14:49:35.647,119,false,0.0,4174.231,4365.385,4111.41,4377.179,4220.0
1749332975.6549,14:49:35.654,120,false,0.0,4162.692,4348.718,4105.769,4374.103,4215.128
1749332975.6627,14:49:35.662,121,false,0.0,4162.692,4324.359,4089.103,4360.256,4216.41
1749332975.6705,14:49:35.670,122,false,0.0,4174.103,4353.718,4093.718,4349.103,4220.897
1749332975.6783,14:49:35.678,123,false,0.0,4175.0,4365.641,4099.359,4344.487,4221.154
1749332975.6862,14:49:35.686,124,false,0.0,4166.923,4341.923,4083.333,4322.436,4222.051
1749332975.694,14:49:35.694,125,false,0.0,4176.154,4338.846,4081.41,4313.846,4226.538
1749332975.7018,14:49:35.701,126,false,0.0,4190.641,4343.462,4104.231,4338.077,4231.41
1749332975.7097,14:49:35.709,127,false,0.0,4187.051,4338.59,4112.179,4341.538,4235.0
1749332975.7176,14:49:35.717,0,false,0.0,4181.282,4338.205,4100.0,4327.179,4236.282
1749332975.7254,14:49:35.725,1,false,0.0,4182.949,4334.744,4095.128,4340.769,4235.897
1749332975.7332,14:49:35.733,2,false,0.0,4180.513,4338.974,4099.615,4361.41,4234.487
1749332975.741,14:49:35.741,3,false,0.0,4176.923,4355.641,4102.051,4367.051,4227.179
1749332975.7489,14:49:35.748,4,false,0.0,4177.821,4350.385,4098.59,4366.41,4214.231
1749332975.7567,14:49:35.756,5,false,0.0,4180.641,4339.359,4092.436,4359.744,4207.821
1749332975.7645,14:49:35.764,6,false,0.0,4180.385,4354.744,4093.718,4368.59,4209.487
1749332975.7723,14:49:35.772,7,false,0.0,4165.385,4356.154,4096.41,4393.974,4203.718
1749332975.7802,14:49:35.780,8,false,0.0,4143.718,4332.051,4079.615,4389.359,4189.231
1749332975.7881,14:49:35.788,9,false,0.0,4136.795,4327.308,4057.308,4362.692,4182.692
1749332975.7959,14:49:35.795,10,false,0.0,4138.59,4338.462,4063.205,4352.564,4191.41
1749332975.8037,14:49:35.803,11,false,0.0,4146.923,4347.179,4085.769,4346.795,4212.179
1749332975.8116,14:49:35.811,12,false,0.0,4174.487,4358.718,4097.692,4342.692,4235.385
1749332975.8194,14:49:35.819,13,false,0.0,4196.795,4361.41,4106.026,4350.769,4243.077
1749332975.8272,14:49:35.827,14,false,0.0,4190.513,4354.872,4108.974,4350.128,4235.385
1749332975.835,14:49:35.835,15,false,0.0,4183.333,4353.718,4090.641,4341.41,4228.974
1749332975.8429,14:49:35.842,16,false,0.0,4185.641,4348.718,4075.385,4346.923,4222.308
1749332975.8507,14:49:35.850,17,false,0.0,4178.846,4342.436,4083.462,4359.103,4211.026
1749332975.8585,14:49:35.858,18,false,0.0,4170.641,4338.846,4085.0,4369.103,4207.949
1749332975.8664,14:49:35.866,19,false,0.0,4167.308,4326.923,4072.051,4381.282,4210.641
1749332975.8741,14:49:35.874,20,false,0.0,4158.077,4326.41,4071.026,4391.282,4208.974
1749332975.8819,14:49:35.881,21,false,0.0,4152.692,4334.872,4077.821,4395.128,4209.872
1749332975.8897,14:49:35.889,22,false,0.0,4157.436,4315.897,4079.872,4393.59,4213.462
1749332975.8975,14:49:35.897,23,false,0.0,4158.205,4299.744,4085.0,4392.692,4210.897
1749332975.9052,14:49:35.905,24,false,0.0,4152.051,4313.718,4085.256,4395.0,4208.462
1749332975.913,14:49:35.913,25,false,0.0,4149.615,4314.103,4077.821,4385.128,4213.974
1749332975.9208,14:49:35.920,26,false,0.0,4162.179,4309.487,4088.59,4364.487,4225.256
1749332975.9286,14:49:35.928,27,false,0.0,4177.692,4327.949,4108.59,4356.154,4234.744
1749332975.9363,14:49:35.936,28,false,0.0,4166.538,4326.154,4101.282,4353.077,4230.385
1749332975.9441,14:49:35.944,29,false,0.0,4148.205,4306.667,4083.718,4342.436,4215.641
1749332975.952,14:49:35.952,30,false,0.0,4161.154,4317.179,4086.795,4338.333,4211.154
1749332975.9598,14:49:35.959,31,false,0.0,4178.333,4328.974,4092.308,4337.821,4218.846
1749332975.9675,14:49:35.967,32,false,0.0,4176.282,4317.179,4087.436,4332.179,4223.59
1749332975.9753,14:49:35.975,33,false,0.0,4180.128,4320.256,4086.538,4338.333,4222.821
1749332975.9831,14:49:35.983,34,false,0.0,4184.872,4338.846,4090.0,4355.0,4222.949
1749332975.9909,14:49:35.990,35,false,0.0,4179.103,4338.077,4092.051,4367.821,4224.872
1749332975.9986,14:49:35.998,36,false,0.0,4182.692,4321.282,4092.949,4388.846,4222.949
1749332976.0064,14:49:36.006,37,false,0.0,4188.718,4312.308,4092.692,4414.615,4219.872
1749332976.0142,14:49:36.014,38,false,0.0,4189.231,4320.385,4101.795,4415.897,4226.923
1749332976.022,14:49:36.022,39,false,0.0,4200.0,4332.949,4118.205,4400.128,4235.769
1749332976.0298,14:49:36.029,40,false,0.0,4200.769,4329.872,4118.077,4398.59,4230.128
1749332976.0376,14:49:36.037,41,false,0.0,4179.744,4313.846,4110.256,4405.897,4223.205
1749332976.0454,14:49:36.045,42,false,0.0,4180.256,4311.41,4120.128,4397.564,4231.026
1749332976.0532,14:49:36.053,43,false,0.0,4209.103,4329.872,4129.872,4379.615,4249.359
1749332976.0609,14:49:36.060,44,false,0.0,4225.641,4339.872,4123.333,4368.974,4271.154
1749332976.0687,14:49:36.068,45,false,0.0,4224.615,4325.769,4119.487,4362.179,4282.949
1749332976.0765,14:49:36.076,46,false,0.0,4228.974,4319.359,4121.538,4356.154,4277.949
1749332976.0843,14:49:36.084,47,false,0.0,4242.949,4331.923,4122.564,4356.154,4274.872
1749332976.0922,14:49:36.092,48,false,0.0,4246.41,4331.795,4130.128,4353.462,4279.231
1749332976.1,14:49:36.100,49,false,0.0,4232.051,4323.077,4135.641,4350.897,4276.667
1749332976.1079,14:49:36.107,50,false,0.0,4227.436,4331.154,4131.154,4372.949,4273.59
1749332976.1157,14:49:36.115,51,false,0.0,4240.385,4336.154,4136.282,4407.179,4278.59
1749332976.1236,14:49:36.123,52,false,0.0,4246.538,4326.795,4148.718,4414.744,4283.462
1749332976.1314,14:49:36.131,53,false,0.0,4252.692,4330.513,4142.308,4406.41,4289.103
1749332976.1392,14:49:36.139,54,false,0.0,4268.462,4344.231,4130.769,4413.462,4296.026
1749332976.147,14:49:36.147,55,false,0.0,4266.923,4339.231,4131.026,4418.077,4291.026
1749332976.1549,14:49:36.154,56,false,0.0,4249.103,4319.359,4123.462,4402.436,4274.359
1749332976.1627,14:49:36.162,57,false,0.0,4241.538,4309.744,4112.692,4390.256,4264.487
1749332976.1705,14:49:36.170,58,false,0.0,4241.41,4316.923,4121.026,4389.872,4271.026
1749332976.1783,14:49:36.178,59,false,0.0,4240.641,4322.051,4128.205,4379.103,4279.615
1749332976.1863,14:49:36.186,60,false,0.0,4239.615,4318.718,4122.436,4362.179,4272.692
1749332976.1941,14:49:36.194,61,false,0.0,4232.949,4324.744,4125.769,4365.769,4259.103
1749332976.2019,14:49:36.201,62,false,0.0,4229.231,4334.744,4134.231,4386.026,4256.154
1749332976.2097,14:49:36.209,63,false,0.0,4233.333,4329.744,4134.487,4389.103,4259.615
1749332976.2176,14:49:36.217,64,false,0.0,4229.231,4328.718,4132.692,4369.872,4263.333
1749332976.2254,14:49:36.225,65,false,0.0,4220.513,4346.154,4127.308,4371.282,4270.897
1749332976.2332,14:49:36.233,66,false,0.0,4224.615,4357.051,4127.436,4410.897,4278.718
1749332976.241,14:49:36.241,67,false,0.0,4231.667,4345.385,4140.128,4436.923,4282.051
1749332976.2489,14:49:36.248,68,false,0.0,4230.0,4323.846,4138.718,4419.103,4282.051
1749332976.2567,14:49:36.256,69,false,0.0,4230.385,4325.769,4127.564,4405.0,4283.333
1749332976.2646,14:49:36.264,70,false,0.0,4238.974,4364.615,4136.795,4423.718,4288.718
1749332976.2724,14:49:36.272,71,false,0.0,4244.615,4382.564,4142.564,4436.667,4291.795
1749332976.2801,14:49:36.280,72,false,0.0,4244.231,4350.0,4131.41,4420.513,4291.154
1749332976.2879,14:49:36.287,73,false,0.0,4249.615,4334.359,4134.487,4396.923,4296.41
1749332976.2957,14:49:36.295,74,false,0.0,4261.026,4353.974,4142.308,4384.487,4300.256
1749332976.3035,14:49:36.303,75,false,0.0,4263.333,4361.026,4138.462,4380.513,4293.333
1749332976.3112,14:49:36.311,76,false,0.0,4255.256,4368.718,4140.256,4370.769,4287.051
1749332976.319,14:49:36.319,77,false,0.0,4247.564,4378.846,4138.077,4350.769,4284.487
1749332976.3268,14:49:36.326,78,false,0.0,4246.795,4354.487,4131.795,4345.385,4284.744
1749332976.3346,14:49:36.334,79,false,0.0,4252.821,4337.949,4148.333,4368.974,4292.051
1749332976.3424,14:49:36.342,80,false,0.0,4252.051,4363.333,4157.308,4391.923,4286.795
1749332976.3502,14:49:36.350,81,false,0.0,4241.923,4376.154,4140.641,4396.026,4267.949
1749332976.358,14:49:36.358,82,false,0.0,4246.282,4368.205,4148.59,4408.718,4273.846
1749332976.3658,14:49:36.365,83,false,0.0,4260.897,4370.769,4169.872,4436.41,4291.154
1749332976.3735,14:49:36.373,84,false,0.0,4252.949,4365.256,4151.923,4443.077,4281.154
1749332976.3813,14:49:36.381,85,false,0.0,4234.487,4356.667,4128.59,4423.59,4273.59
1749332976.3891,14:49:36.389,86,false,0.0,4236.41,4368.718,4132.308,4414.103,4287.564
1749332976.3969,14:49:36.396,87,false,0.0,4246.923,4375.385,4132.564,4422.051,4289.231
1749332976.4046,14:49:36.404,88,false,0.0,4251.795,4368.718,4131.026,4424.487,4287.692
1749332976.4124,14:49:36.412,89,false,0.0,4260.385,4378.462,4142.821,4414.103,4305.897
1749332976.4203,14:49:36.420,90,false,0.0,4268.077,4396.026,4144.103,4394.744,4312.692
1749332976.4281,14:49:36.428,91,false,0.0,4267.179,4392.436,4134.744,4372.051,4298.077
1749332976.4358,14:49:36.435,92,false,0.0,4269.359,4374.103,4138.333,4363.333,4290.513
1749332976.4436,14:49:36.443,93,false,0.0,4277.692,4371.923,4150.385,4368.718,4292.564
1749332976.4514,14:49:36.451,94,false,0.0,4278.333,4386.538,4156.538,4365.128,4297.051
1749332976.4592,14:49:36.459,95,false,0.0,4271.923,4387.436,4156.538,4362.821,4302.821
1749332976.4671,14:49:36.467,96,false,0.0,4278.077,4384.359,4162.949,4391.41,4303.718
1749332976.4749,14:49:36.474,97,false,0.0,4296.154,4400.769,4181.282,4424.615,4309.487
1749332976.4827,14:49:36.482,98,false,0.0,4301.41,4404.103,4187.308,4423.59,4324.231
1749332976.4905,14:49:36.490,99,false,0.0,4289.487,4392.692,4171.667,4415.256,4322.821
1749332976.4985,14:49:36.498,100,false,0.0,4273.59,4405.128,4163.974,4427.949,4302.051
1749332976.5063,14:49:36.506,101,false,0.0,4254.103,4409.744,4166.41,4436.923,4285.128
1749332976.5141,14:49:36.514,102,false,0.0,4241.026,4393.077,4161.538,4432.051,4276.538
1749332976.5219,14:49:36.521,103,false,0.0,4251.923,4405.0,4164.103,4426.923,4276.282
1749332976.5298,14:49:36.529,104,false,0.0,4264.103,4417.179,4173.718,4413.077,4285.769
1749332976.5376,14:49:36.537,105,false,0.0,4253.846,4399.103,4167.692,4391.026,4285.385
1749332976.5454,14:49:36.545,106,false,0.0,4245.0,4409.231,4157.821,4378.205,4264.103
1749332976.5532,14:49:36.553,107,false,0.0,4251.538,4433.077,4157.051,4363.462,4247.692
1749332976.5611,14:49:36.561,108,false,0.0,4257.821,4410.0,4154.744,4345.128,4255.256
1749332976.5689,14:49:36.568,109,false,0.0,4268.205,4382.564,4153.59,4349.872,4267.821
1749332976.5768,14:49:36.576,110,false,0.0,4282.436,4387.949,4157.564,4367.436,4265.513
1749332976.5846,14:49:36.584,111,false,0.0,4277.308,4403.333,4160.128,4367.179,4259.359
1749332976.5925,14:49:36.592,112,false,0.0,4260.641,4419.615,4161.795,4366.41,4257.949
1749332976.6003,14:49:36.600,113,false,0.0,4258.333,4414.744,4156.795,4387.308,4247.949
1749332976.6081,14:49:36.608,114,false,0.0,4258.974,4390.641,4144.231,4409.872,4234.231
1749332976.6159,14:49:36.615,115,false,0.0,4248.718,4392.436,4145.385,4415.513,4229.487
1749332976.6238,14:49:36.623,116,false,0.0,4241.41,4406.282,4161.923,4419.231,4220.0
1749332976.6316,14:49:36.631,117,false,0.0,4247.564,4411.41,4174.744,4442.308,4213.077
1749332976.6394,14:49:36.639,118,false,0.0,4260.385,4430.641,4178.333,4472.308,4235.128
1749332976.6472,14:49:36.647,119,false,0.0,4262.436,4433.59,4163.846,4466.923,4252.308
1749332976.655,14:49:36.655,120,false,0.0,4248.077,4404.359,4135.513,4427.692,4230.769
1749332976.6628,14:49:36.662,121,false,0.0,4241.667,4396.282,4131.282,4411.667,4217.949
1749332976.6706,14:49:36.670,122,false,0.0,4252.692,4404.231,4151.667,4427.179,4238.974
1749332976.6784,14:49:36.678,123,false,0.0,4261.923,4405.256,4155.256,4428.333,4254.487
1749332976.6861,14:49:36.686,124,false,0.0,4273.333,4421.538,4147.949,4425.0,4259.103
1749332976.6939,14:49:36.693,125,false,0.0,4285.256,4426.154,4151.41,4449.487,4266.538
1749332976.7017,14:49:36.701,126,false,0.0,4275.385,4405.256,4147.308,4465.513,4260.256
1749332976.7095,14:49:36.709,127,false,0.0,4270.897,4404.615,4138.718,4452.308,4252.564
1749332976.7172,14:49:36.717,0,false,0.0,4288.718,4410.256,4143.59,4454.615,4263.462
1749332976.725,14:49:36.725,1,false,0.0,4283.718,4403.718,4139.615,4478.718,4265.385
1749332976.7328,14:49:36.732,2,false,0.0,4270.128,4422.821,4128.974,4491.923,4256.026
1749332976.7407,14:49:36.740,3,false,0.0,4290.128,4438.462,4139.744,4488.462,4265.256
1749332976.7484,14:49:36.748,4,false,0.0,4295.641,4410.513,4145.897,4460.128,4271.41
1749332976.7562,14:49:36.756,5,false,0.0,4274.744,4392.436,4135.0,4418.333,4257.564
1749332976.764,14:49:36.764,6,false,0.0,4288.59,4406.538,4145.897,4415.128,4258.205
1749332976.7718,14:49:36.771,7,false,0.0,4311.923,4414.231,4162.436,4437.051,4272.051
1749332976.7795,14:49:36.779,8,false,0.0,4301.795,4411.282,4149.615,4420.897,4271.41
1749332976.7873,14:49:36.787,9,false,0.0,4297.692,4407.692,4140.128,4388.205,4267.692
1749332976.7951,14:49:36.795,10,false,0.0,4305.385,4403.077,4145.256,4384.872,4267.308
1749332976.8029,14:49:36.802,11,false,0.0,4303.846,4402.051,4137.821,4384.872,4258.974
1749332976.8106,14:49:36.810,12,false,0.0,4319.615,4408.077,4138.462,4370.128,4255.513
1749332976.8185,14:49:36.818,13,false,0.0,4335.897,4421.282,4156.154,4366.923,4264.744
1749332976.8263,14:49:36.826,14,false,0.0,4320.0,4419.615,4153.077,4374.744,4273.077
1749332976.8341,14:49:36.834,15,false,0.0,4319.872,4396.026,4138.846,4372.949,4280.256
1749332976.842,14:49:36.842,16,false,0.0,4357.308,4402.308,4151.538,4370.897,4295.385
1749332976.8498,14:49:36.849,17,false,0.0,4381.41,4432.051,4171.026,4380.897,4314.615
1749332976.8576,14:49:36.857,18,false,0.0,4389.103,4419.231,4167.179,4392.051,4325.641
1749332976.8654,14:49:36.865,19,false,0.0,4407.179,4401.923,4160.641,4405.513,4326.667
1749332976.8733,14:49:36.873,20,false,0.0,4416.41,4427.821,4172.949,4430.641,4330.385
1749332976.8811,14:49:36.881,21,false,0.0,4412.436,4435.769,4186.026,4447.821,4335.769
1749332976.8889,14:49:36.888,22,false,0.0,4427.051,4416.667,4189.487,4451.282,4335.513
1749332976.8968,14:49:36.896,23,false,0.0,4452.692,4419.103,4196.923,4465.769,4341.154
1749332976.9047,14:49:36.904,24,false,0.0,4451.282,4420.0,4201.41,4473.462,4346.41
1749332976.9125,14:49:36.912,25,false,0.0,4434.744,4412.821,4193.974,4439.615,4337.308
1749332976.9203,14:49:36.920,26,false,0.0,4447.308,4420.128,4197.179,4396.154,4337.949
1749332976.9281,14:49:36.928,27,false,0.0,4471.282,4407.564,4206.667,4390.513,4349.615
1749332976.936,14:49:36.936,28,false,0.0,4461.41,4389.103,4191.154,4406.795,4341.154
1749332976.9438,14:49:36.943,29,false,0.0,4446.154,4414.487,4172.179,4397.821,4331.154
1749332976.9516,14:49:36.951,30,false,0.0,4462.821,4427.692,4181.538,4372.692,4345.641
1749332976.9594,14:49:36.959,31,false,0.0,4483.205,4400.128,4200.641,4389.615,4366.667
1749332976.9673,14:49:36.967,32,false,0.0,4489.359,4416.154,4209.359,4427.564,4380.897
1749332976.9752,14:49:36.975,33,false,0.0,4491.795,4464.615,4205.769,4415.897,4378.846
1749332976.983,14:49:36.983,34,false,0.0,4488.333,4445.128,4198.333,4396.795,4366.923
1749332976.9908,14:49:36.990,35,false,0.0,4493.205,4395.256,4208.718,4415.385,4373.718
1749332976.9987,14:49:36.998,36,false,0.0,4500.513,4407.692,4217.821,4408.718,4370.128
1749332977.0065,14:49:37.006,37,false,0.0,4478.59,4438.462,4192.436,4387.051,4338.077
1749332977.0143,14:49:37.014,38,false,0.0,4466.282,4428.974,4175.769,4405.641,4341.41
1749332977.0221,14:49:37.022,39,false,0.0,4498.077,4427.949,4203.333,4407.179,4373.333
1749332977.0298,14:49:37.029,40,false,0.0,4514.872,4448.333,4225.385,4378.59,4374.744
1749332977.0376,14:49:37.037,41,false,0.0,4499.103,4435.256,4214.103,4375.897,4371.282
1749332977.0454,14:49:37.045,42,false,0.0,4487.308,4412.692,4203.077,4364.359,4368.205
1749332977.0533,14:49:37.053,43,false,0.0,4475.897,4434.103,4213.718,4336.923,4349.615
1749332977.061,14:49:37.061,44,false,0.0,4475.513,4460.513,4231.41,4342.051,4361.282
1749332977.0688,14:49:37.068,45,false,0.0,4478.462,4453.974,4225.256,4338.974,4368.974
1749332977.0766,14:49:37.076,46,false,0.0,4436.667,4443.846,4203.205,4318.077,4328.205
1749332977.0844,14:49:37.084,47,false,0.0,4403.077,4438.974,4204.744,4330.641,4325.513
1749332977.0921,14:49:37.092,48,false,0.0,4421.41,4425.256,4206.41,4341.154,4347.692
1749332977.0999,14:49:37.099,49,false,0.0,4405.513,4424.487,4183.59,4339.615,4306.026
1749332977.1077,14:49:37.107,50,false,0.0,4371.538,4441.923,4188.718,4367.308,4288.846
1749332977.1155,14:49:37.115,51,false,0.0,4397.564,4441.026,4212.564,4375.769,4329.744
1749332977.1232,14:49:37.123,52,false,0.0,4408.718,4424.744,4197.949,4355.0,4317.436
1749332977.1311,14:49:37.131,53,false,0.0,4383.974,4434.231,4190.641,4370.897,4298.077
1749332977.1389,14:49:37.138,54,false,0.0,4403.718,4451.41,4211.538,4387.564,4334.359
1749332977.1467,14:49:37.146,55,false,0.0,4417.692,4436.667,4196.154,4362.179,4331.154
1749332977.1544,14:49:37.154,56,false,0.0,4390.897,4421.538,4174.231,4345.769,4300.128
1749332977.1622,14:49:37.162,57,false,0.0,4395.513,4428.205,4196.154,4349.359,4318.205
1749332977.17,14:49:37.170,58,false,0.0,4404.231,4421.538,4203.205,4350.256,4332.436
1749332977.1778,14:49:37.177,59,false,0.0,4391.923,4411.154,4183.846,4349.487,4332.692
1749332977.1855,14:49:37.185,60,false,0.0,4426.282,4427.692,4192.436,4339.615,4360.128
1749332977.1933,14:49:37.193,61,false,0.0,4466.923,4437.949,4211.795,4344.744,4366.538
1749332977.2011,14:49:37.201,62,false,0.0,4450.128,4422.821,4212.308,4384.744,4352.179
1749332977.209,14:49:37.209,63,false,0.0,4435.0,4414.231,4206.026,4404.103,4367.308
1749332977.2169,14:49:37.216,64,false,0.0,4443.59,4423.333,4199.103,4392.308,4373.462
1749332977.2247,14:49:37.224,65,false,0.0,4443.333,4437.692,4201.41,4406.154,4353.846
1749332977.2325,14:49:37.232,66,false,0.0,4443.59,4442.949,4207.308,4438.462,4352.308
1749332977.2403,14:49:37.240,67,false,0.0,4438.462,4429.231,4193.974,4446.538,4354.359
1749332977.2482,14:49:37.248,68,false,0.0,4422.436,4414.744,4183.974,4436.795,4343.077
1749332977.256,14:49:37.256,69,false,0.0,4421.795,4416.667,4193.846,4437.051,4342.564
1749332977.2638,14:49:37.263,70,false,0.0,4428.846,4428.974,4198.974,4451.923,4349.872
1749332977.2716,14:49:37.271,71,false,0.0,4434.231,4443.974,4206.41,4450.0,4352.436
1749332977.2795,14:49:37.279,72,false,0.0,4439.231,4441.923,4210.769,4420.513,4352.436
1749332977.2874,14:49:37.287,73,false,0.0,4423.333,4420.385,4182.949,4404.231,4348.718
1749332977.2952,14:49:37.295,74,false,0.0,4410.641,4418.974,4168.974,4405.256,4351.026
1749332977.303,14:49:37.303,75,false,0.0,4429.615,4440.128,4194.744,4393.59,4359.615
1749332977.3109,14:49:37.310,76,false,0.0,4434.487,4443.205,4193.846,4384.615,4361.923
1749332977.3187,14:49:37.318,77,false,0.0,4421.154,4431.154,4172.949,4391.41,4366.41
1749332977.3265,14:49:37.326,78,false,0.0,4432.564,4424.103,4184.103,4400.513,4370.0
1749332977.3343,14:49:37.334,79,false,0.0,4434.231,4415.897,4184.103,4416.538,4352.564
1749332977.3422,14:49:37.342,80,false,0.0,4405.128,4407.179,4157.692,4430.769,4331.026
1749332977.35,14:49:37.350,81,false,0.0,4397.179,4406.795,4162.692,4436.026,4329.359
1749332977.3578,14:49:37.357,82,false,0.0,4409.359,4411.538,4181.538,4455.0,4333.846
1749332977.3657,14:49:37.365,83,false,0.0,4402.308,4410.385,4168.462,4472.308,4328.077
1749332977.3734,14:49:37.373,84,false,0.0,4386.026,4398.974,4149.103,4463.974,4314.487
1749332977.3812,14:49:37.381,85,false,0.0,4377.821,4399.744,4143.846,4459.103,4302.051
1749332977.389,14:49:37.389,86,false,0.0,4375.0,4416.282,4144.487,4461.154,4298.718
1749332977.3968,14:49:37.396,87,false,0.0,4376.667,4411.154,4151.282,4447.436,4302.949
1749332977.4045,14:49:37.404,88,false,0.0,4373.205,4395.641,4151.154,4435.769,4307.949
1749332977.4123,14:49:37.412,89,false,0.0,4357.692,4406.795,4139.231,4425.897,4303.59
1749332977.4201,14:49:37.420,90,false,0.0,4347.179,4410.769,4139.872,4399.487,4290.256
1749332977.4279,14:49:37.427,91,false,0.0,4354.487,4390.385,4152.692,4385.128,4289.231
1749332977.4356,14:49:37.435,92,false,0.0,4360.641,4390.769,4153.205,4389.744,4298.333
1749332977.4435,14:49:37.443,93,false,0.0,4348.974,4403.974,4143.333,4383.205,4290.0
1749332977.4513,14:49:37.451,94,false,0.0,4343.333,4393.718,4139.615,4383.974,4281.026
1749332977.4591,14:49:37.459,95,false,0.0,4358.462,4376.538,4137.308,4406.026,4295.897
1749332977.4668,14:49:37.466,96,false,0.0,4363.205,4370.897,4125.513,4408.077,4299.487
1749332977.4746,14:49:37.474,97,false,0.0,4353.333,4379.615,4119.744,4391.795,4280.769
1749332977.4824,14:49:37.482,98,false,0.0,4360.769,4396.795,4137.821,4401.795,4281.795
1749332977.4902,14:49:37.490,99,false,0.0,4377.179,4393.333,4157.436,4426.154,4301.538
1749332977.4979,14:49:37.497,100,false,0.0,4381.41,4378.462,4156.026,4429.615,4307.179
1749332977.5057,14:49:37.505,101,false,0.0,4374.744,4384.231,4149.231,4418.846,4299.744
1749332977.5135,14:49:37.513,102,false,0.0,4355.256,4388.462,4146.667,4408.974,4291.923
1749332977.5213,14:49:37.521,103,false,0.0,4344.231,4386.538,4146.538,4401.923,4294.487
1749332977.5291,14:49:37.529,104,false,0.0,4360.385,4404.615,4157.179,4400.769,4308.974
1749332977.5369,14:49:37.536,105,false,0.0,4365.641,4410.385,4165.0,4397.692,4310.641
1749332977.5447,14:49:37.544,106,false,0.0,4353.718,4394.872,4158.462,4385.0,4299.744
1749332977.5525,14:49:37.552,107,false,0.0,4360.256,4400.128,4160.769,4376.282,4302.051
1749332977.5604,14:49:37.560,108,false,0.0,4360.128,4404.615,4166.282,4380.128,4301.923
1749332977.5682,14:49:37.568,109,false,0.0,4340.385,4393.59,4152.051,4388.077,4289.744
1749332977.576,14:49:37.576,110,false,0.0,4348.718,4410.128,4143.462,4394.615,4298.974
1749332977.5838,14:49:37.583,111,false,0.0,4369.615,4431.026,4152.051,4398.974,4320.769
1749332977.5917,14:49:37.591,112,false,0.0,4365.256,4420.769,4148.205,4409.359,4321.667
1749332977.5995,14:49:37.599,113,false,0.0,4366.923,4415.0,4138.846,4433.077,4317.821
1749332977.6074,14:49:37.607,114,false,0.0,4375.897,4417.564,4144.487,4448.846,4321.667
1749332977.6152,14:49:37.615,115,false,0.0,4366.282,4417.179,4153.718,4446.41,4320.513
1749332977.6231,14:49:37.623,116,false,0.0,4369.231,4433.846,4162.564,4450.0,4323.205
1749332977.6309,14:49:37.630,117,false,0.0,4388.718,4440.513,4170.128,4453.077,4331.923
1749332977.6387,14:49:37.638,118,false,0.0,4390.0,4424.487,4171.538,4430.897,4333.974
1749332977.6465,14:49:37.646,119,false,0.0,4388.846,4432.949,4181.282,4408.462,4337.692
1749332977.6544,14:49:37.654,120,false,0.0,4397.821,4444.487,4191.282,4405.0,4341.923
1749332977.6622,14:49:37.662,121,false,0.0,4396.538,4424.487,4176.667,4399.359,4332.949
1749332977.67,14:49:37.670,122,false,0.0,4396.538,4421.923,4167.564,4396.154,4327.564
1749332977.6778,14:49:37.677,123,false,0.0,4403.59,4439.615,4187.821,4403.205,4333.718
1749332977.6858,14:49:37.685,124,false,0.0,4399.359,4435.641,4199.359,4398.077,4328.205
1749332977.6936,14:49:37.693,125,false,0.0,4396.154,4434.615,4194.872,4388.846,4315.0
1749332977.7014,14:49:37.701,126,false,0.0,4402.564,4452.179,4201.026,4397.564,4317.821
1749332977.7092,14:49:37.709,127,false,0.0,4402.308,4467.179,4203.974,4404.487,4329.872
1749332977.7171,14:49:37.717,0,false,0.0,4403.462,4483.205,4197.051,4405.128,4337.308
1749332977.7249,14:49:37.724,1,false,0.0,4408.077,4484.615,4201.026,4417.692,4341.538
1749332977.7327,14:49:37.732,2,false,0.0,4398.718,4464.487,4201.667,4427.436,4339.615
1749332977.7405,14:49:37.740,3,false,0.0,4394.872,4466.923,4188.077,4429.487,4335.769
1749332977.7483,14:49:37.748,4,false,0.0,4412.308,4480.769,4190.641,4441.282,4347.051
1749332977.7561,14:49:37.756,5,false,0.0,4425.385,4468.59,4210.897,4445.256,4363.59
1749332977.764,14:49:37.764,6,false,0.0,4431.026,4469.615,4219.359,4431.795,4365.897
1749332977.7718,14:49:37.771,7,false,0.0,4442.179,4486.282,4215.385,4426.538,4365.641
1749332977.7795,14:49:37.779,8,false,0.0,4443.846,4470.128,4211.667,4422.436,4368.462
1749332977.7873,14:49:37.787,9,false,0.0,4438.462,4461.282,4213.462,4405.769,4361.282
1749332977.7951,14:49:37.795,10,false,0.0,4444.231,4490.0,4224.615,4397.949,4357.436
1749332977.8029,14:49:37.802,11,false,0.0,4449.872,4495.0,4234.103,4397.179,4368.077
1749332977.8106,14:49:37.810,12,false,0.0,4449.615,4476.026,4233.974,4393.205,4373.077
1749332977.8184,14:49:37.818,13,false,0.0,4458.077,4480.513,4239.487,4404.487,4374.231
1749332977.8262,14:49:37.826,14,false,0.0,4469.359,4487.692,4250.256,4422.692,4384.744
1749332977.834,14:49:37.834,15,false,0.0,4471.282,4483.974,4250.385,4428.205,4384.231
1749332977.8418,14:49:37.841,16,false,0.0,4468.077,4493.59,4247.692,4435.256,4369.487
1749332977.8496,14:49:37.849,17,false,0.0,4466.41,4507.051,4255.769,4448.59,4369.615
1749332977.8574,14:49:37.857,18,false,0.0,4469.744,4511.026,4263.974,4460.897,4381.923
1749332977.8652,14:49:37.865,19,false,0.0,4466.41,4506.154,4255.128,4473.846,4382.949
1749332977.8729,14:49:37.872,20,false,0.0,4448.462,4492.949,4237.821,4473.59,4377.436
1749332977.8807,14:49:37.880,21,false,0.0,4442.564,4497.692,4243.59,4462.308,4378.974
1749332977.8885,14:49:37.888,22,false,0.0,4459.359,4522.179,4267.821,4462.821,4384.231
1749332977.8963,14:49:37.896,23,false,0.0,4468.462,4522.692,4266.026,4455.256,4383.333
1749332977.904,14:49:37.904,24,false,0.0,4466.41,4505.0,4247.308,4423.333,4377.436
1749332977.9118,14:49:37.911,25,false,0.0,4472.179,4504.231,4254.103,4395.769,4377.051
1749332977.9197,14:49:37.919,26,false,0.0,4475.513,4507.179,4262.436,4377.308,4381.026
1749332977.9275,14:49:37.927,27,false,0.0,4468.462,4499.615,4245.513,4361.538,4378.462
1749332977.9352,14:49:37.935,28,false,0.0,4462.179,4491.795,4236.41,4361.41,4369.103
1749332977.943,14:49:37.943,29,false,0.0,4455.128,4489.487,4236.538,4363.59,4357.949
1749332977.9508,14:49:37.950,30,false,0.0,4448.462,4504.487,4228.077,4363.718,4351.026
1749332977.9586,14:49:37.958,31,false,0.0,4455.769,4523.333,4240.256,4388.077,4359.487
1749332977.9665,14:49:37.966,32,false,0.0,4468.718,4510.641,4265.256,4420.0,4373.846
1749332977.9743,14:49:37.974,33,false,0.0,4469.231,4490.769,4260.769,4431.154,4372.564
1749332977.9821,14:49:37.982,34,false,0.0,4463.077,4499.487,4257.692,4441.026,4366.282
1749332977.9899,14:49:37.989,35,false,0.0,4462.949,4507.308,4276.923,4454.231,4373.077
1749332977.9979,14:49:37.997,36,false,0.0,4460.256,4501.923,4270.513,4453.59,4380.256
1749332978.0057,14:49:38.005,37,false,0.0,4452.821,4508.59,4250.385,4449.231,4378.718
1749332978.0135,14:49:38.013,38,false,0.0,4455.128,4512.564,4261.026,4446.41,4378.974
1749332978.0213,14:49:38.021,39,false,0.0,4458.462,4500.897,4267.692,4435.256,4377.436
1749332978.0292,14:49:38.029,40,false,0.0,4443.59,4501.795,4246.923,4426.41,4368.462
1749332978.037,14:49:38.037,41,false,0.0,4429.744,4510.0,4233.974,4424.231,4362.179
1749332978.0448,14:49:38.044,42,false,0.0,4435.385,4499.231,4230.897,4411.795,4361.923
1749332978.0526,14:49:38.052,43,false,0.0,4440.769,4490.385,4226.795,4390.256,4365.513
1749332978.0605,14:49:38.060,44,false,0.0,4440.641,4503.205,4237.179,4383.462,4375.769
1749332978.0683,14:49:38.068,45,false,0.0,4448.59,4513.462,4251.667,4398.333,4383.718
1749332978.0762,14:49:38.076,46,false,0.0,4451.41,4509.103,4251.538,4417.308,4376.154
1749332978.084,14:49:38.084,47,false,0.0,4441.154,4507.308,4251.154,4430.897,4360.513
1749332978.0919,14:49:38.091,48,false,0.0,4435.385,4512.436,4253.077,4451.154,4349.744
1749332978.0997,14:49:38.099,49,false,0.0,4427.051,4505.769,4243.077,4473.333,4339.359
1749332978.1075,14:49:38.107,50,false,0.0,4404.615,4478.333,4230.0,4470.641,4325.128
1749332978.1153,14:49:38.115,51,false,0.0,4396.667,4465.385,4231.538,4453.462,4321.538
1749332978.123,14:49:38.123,52,false,0.0,4412.821,4498.718,4246.154,4456.154,4336.923
1749332978.1308,14:49:38.130,53,false,0.0,4415.769,4529.744,4256.667,4469.103,4353.462
1749332978.1386,14:49:38.138,54,false,0.0,4403.59,4510.128,4251.538,4466.282,4356.667
1749332978.1464,14:49:38.146,55,false,0.0,4408.59,4489.359,4238.974,4461.538,4352.051
1749332978.1542,14:49:38.154,56,false,0.0,4417.949,4504.231,4232.436,4467.051,4339.359
1749332978.162,14:49:38.162,57,false,0.0,4406.667,4512.051,4235.128,4465.641,4325.385
1749332978.1698,14:49:38.169,58,false,0.0,4396.154,4502.436,4242.821,4456.282,4329.359
1749332978.1776,14:49:38.177,59,false,0.0,4396.154,4501.667,4237.949,4450.513,4335.897
1749332978.1853,14:49:38.185,60,false,0.0,4384.487,4498.59,4215.897,4446.795,4319.359
1749332978.1931,14:49:38.193,61,false,0.0,4371.667,4487.564,4207.949,4450.128,4304.744
1749332978.2009,14:49:38.200,62,false,0.0,4380.769,4484.744,4223.59,4462.308,4316.282
1749332978.2087,14:49:38.208,63,false,0.0,4393.59,4485.128,4230.897,4467.179,4329.359
1749332978.2166,14:49:38.216,64,false,0.0,4397.051,4489.231,4226.154,4470.769,4330.513
1749332978.2244,14:49:38.224,65,false,0.0,4406.154,4502.692,4231.667,4492.564,4333.846
1749332978.2323,14:49:38.232,66,false,0.0,4408.077,4497.821,4238.462,4519.744,4337.051
1749332978.2401,14:49:38.240,67,false,0.0,4384.359,4463.077,4227.179,4533.077,4331.41
1749332978.2478,14:49:38.247,68,false,0.0,4370.641,4448.333,4209.744,4527.436,4322.821
1749332978.2556,14:49:38.255,69,false,0.0,4393.462,4477.949,4211.41,4502.564,4318.846
1749332978.2634,14:49:38.263,70,false,0.0,4407.179,4495.128,4224.103,4486.667,4322.308
1749332978.2712,14:49:38.271,71,false,0.0,4386.41,4478.077,4220.513,4493.205,4327.692
1749332978.2789,14:49:38.278,72,false,0.0,4378.462,4481.026,4219.487,4472.564,4325.256
1749332978.2867,14:49:38.286,73,false,0.0,4392.821,4499.872,4244.103,4427.949,4320.385
1749332978.2945,14:49:38.294,74,false,0.0,4383.718,4488.205,4248.205,4427.949,4325.256
1749332978.3023,14:49:38.302,75,false,0.0,4365.769,4485.897,4224.103,4442.564,4332.564
1749332978.3101,14:49:38.310,76,false,0.0,4377.564,4512.436,4232.692,4417.692,4329.744
1749332978.3179,14:49:38.317,77,false,0.0,4385.0,4501.154,4251.154,4414.231,4324.744
1749332978.3257,14:49:38.325,78,false,0.0,4369.487,4468.846,4232.179,4447.949,4327.436
1749332978.3335,14:49:38.333,79,false,0.0,4371.795,4479.231,4223.974,4450.0,4331.41
1749332978.3414,14:49:38.341,80,false,0.0,4384.487,4493.077,4233.974,4443.462,4331.538
1749332978.3492,14:49:38.349,81,false,0.0,4381.667,4484.103,4217.051,4465.385,4331.41
1749332978.357,14:49:38.357,82,false,0.0,4385.897,4487.692,4209.487,4473.333,4328.205
1749332978.3648,14:49:38.364,83,false,0.0,4389.872,4488.974,4223.718,4471.667,4318.846
1749332978.3727,14:49:38.372,84,false,0.0,4375.513,4479.872,4211.923,4481.795,4315.513
1749332978.3805,14:49:38.380,85,false,0.0,4386.026,4492.179,4207.051,4470.897,4334.615
1749332978.3884,14:49:38.388,86,false,0.0,4427.949,4502.692,4235.769,4454.615,4368.846
1749332978.3962,14:49:38.396,87,false,0.0,4445.897,4483.59,4240.0,4458.846,4385.256
1749332978.4041,14:49:38.404,88,false,0.0,4439.103,4465.385,4222.308,4447.436,4373.974
1749332978.4119,14:49:38.411,89,false,0.0,4438.462,4466.923,4229.487,4430.897,4368.59
1749332978.4197,14:49:38.419,90,false,0.0,4435.897,4476.795,4239.744,4441.026,4377.949
1749332978.4275,14:49:38.427,91,false,0.0,4422.564,4478.333,4232.308,4445.897,4370.513
1749332978.4354,14:49:38.435,92,false,0.0,4410.769,4468.205,4229.744,4443.333,4355.385
1749332978.4432,14:49:38.443,93,false,0.0,4412.564,4474.487,4240.0,4455.769,4364.872
1749332978.451,14:49:38.451,94,false,0.0,4423.974,4495.256,4248.974,4461.154,4382.051
1749332978.4588,14:49:38.458,95,false,0.0,4424.231,4489.103,4242.564,4470.513,4386.41
1749332978.4667,14:49:38.466,96,false,0.0,4413.077,4470.0,4228.59,4506.41,4386.41
1749332978.4746,14:49:38.474,97,false,0.0,4406.538,4474.231,4224.359,4524.231,4376.538
1749332978.4824,14:49:38.482,98,false,0.0,4398.205,4482.564,4219.231,4507.436,4361.41
1749332978.4902,14:49:38.490,99,false,0.0,4388.718,4479.744,4210.897,4493.205,4364.231
1749332978.498,14:49:38.498,100,false,0.0,4388.718,4478.974,4218.59,4475.769,4370.0
1749332978.5058,14:49:38.505,101,false,0.0,4385.385,4478.333,4226.538,4441.795,4363.462
1749332978.5136,14:49:38.513,102,false,0.0,4381.538,4474.359,4220.256,4418.974,4364.615
1749332978.5214,14:49:38.521,103,false,0.0,4390.385,4468.846,4223.59,4415.256,4368.718
1749332978.5291,14:49:38.529,104,false,0.0,4391.795,4467.564,4230.128,4405.385,4360.256
1749332978.5369,14:49:38.536,105,false,0.0,4386.667,4480.256,4223.205,4386.923,4356.667
1749332978.5447,14:49:38.544,106,false,0.0,4396.026,4487.436,4230.0,4381.795,4358.333
1749332978.5526,14:49:38.552,107,false,0.0,4400.385,4475.513,4247.821,4387.051,4351.282
1749332978.5605,14:49:38.560,108,false,0.0,4394.872,4472.308,4238.846,4380.897,4349.103
1749332978.5683,14:49:38.568,109,false,0.0,4404.231,4472.692,4219.744,4380.385,4349.744
1749332978.5761,14:49:38.576,110,false,0.0,4408.718,4454.359,4219.487,4408.846,4339.744
1749332978.5839,14:49:38.583,111,false,0.0,4391.667,4450.385,4222.179,4435.385,4339.487
1749332978.5916,14:49:38.591,112,false,0.0,4383.718,4471.026,4222.308,4447.308,4354.615
1749332978.5994,14:49:38.599,113,false,0.0,4385.641,4479.744,4227.051,4467.949,4356.538
1749332978.6072,14:49:38.607,114,false,0.0,4377.179,4482.692,4224.487,4475.897,4347.051
1749332978.615,14:49:38.615,115,false,0.0,4375.769,4492.179,4218.846,4459.872,4345.641
1749332978.6227,14:49:38.622,116,false,0.0,4391.667,4489.103,4226.282,4459.487,4349.872
1749332978.6306,14:49:38.630,117,false,0.0,4407.564,4482.564,4233.205,4463.718,4358.205
1749332978.6384,14:49:38.638,118,false,0.0,4419.615,4481.667,4230.513,4442.436,4370.385
1749332978.6462,14:49:38.646,119,false,0.0,4427.692,4476.41,4235.0,4427.436,4373.333
1749332978.6539,14:49:38.653,120,false,0.0,4431.538,4482.821,4247.308,4428.846,4365.256
1749332978.6617,14:49:38.661,121,false,0.0,4440.769,4494.872,4249.744,4421.026,4357.436
1749332978.6695,14:49:38.669,122,false,0.0,4442.436,4479.744,4237.821,4409.103,4347.308
1749332978.6773,14:49:38.677,123,false,0.0,4421.538,4459.487,4221.795,4399.872,4332.564
1749332978.685,14:49:38.685,124,false,0.0,4409.615,4462.436,4217.949,4395.0,4328.205
1749332978.6928,14:49:38.692,125,false,0.0,4426.282,4466.923,4229.872,4402.308,4337.949
1749332978.7006,14:49:38.700,126,false,0.0,4435.256,4466.923,4236.154,4402.308,4344.487
1749332978.7085,14:49:38.708,127,false,0.0,4421.026,4469.487,4221.795,4396.538,4340.128
1749332978.7164,14:49:38.716,0,false,0.0,4410.256,4462.179,4206.41,4413.974,4329.103
1749332978.7242,14:49:38.724,1,false,0.0,4409.231,4453.077,4208.718,4429.103,4317.692
1749332978.732,14:49:38.732,2,false,0.0,4408.974,4453.333,4216.154,4421.41,4318.462
1749332978.7398,14:49:38.739,3,false,0.0,4408.333,4446.667,4213.846,4425.128,4326.282
1749332978.7477,14:49:38.747,4,false,0.0,4401.667,4438.077,4212.564,4434.231,4322.949
1749332978.7555,14:49:38.755,5,false,0.0,4394.872,4452.051,4223.333,4424.103,4320.641
1749332978.7633,14:49:38.763,6,false,0.0,4402.821,4478.205,4234.487,4414.615,4334.487
1749332978.7711,14:49:38.771,7,false,0.0,4412.692,4483.59,4236.282,4399.615,4343.333
1749332978.779,14:49:38.779,8,false,0.0,4409.872,4466.282,4231.154,4366.667,4343.333
1749332978.7869,14:49:38.786,9,false,0.0,4411.795,4454.872,4219.744,4354.103,4352.949
1749332978.7947,14:49:38.794,10,false,0.0,4420.385,4458.846,4208.333,4365.256,4357.821
1749332978.8025,14:49:38.802,11,false,0.0,4417.308,4461.282,4210.513,4364.359,4345.385
1749332978.8104,14:49:38.810,12,false,0.0,4412.692,4466.538,4222.179,4364.231,4340.897
1749332978.8182,14:49:38.818,13,false,0.0,4421.667,4479.615,4228.205,4378.077,4352.564
1749332978.826,14:49:38.826,14,false,0.0,4425.641,4479.872,4228.205,4386.923,4358.205
1749332978.8338,14:49:38.833,15,false,0.0,4414.872,4471.282,4226.282,4394.744,4347.436
1749332978.8417,14:49:38.841,16,false,0.0,4405.385,4468.077,4223.974,4406.282,4327.051
1749332978.8495,14:49:38.849,17,false,0.0,4403.59,4461.795,4230.897,4416.41,4316.41
1749332978.8573,14:49:38.857,18,false,0.0,4407.821,4468.59,4246.538,4438.974,4327.949
1749332978.8652,14:49:38.865,19,false,0.0,4413.59,4492.051,4247.436,4452.308,4336.538
1749332978.8731,14:49:38.873,20,false,0.0,4411.154,4486.923,4232.179,4424.487,4324.103
1749332978.8809,14:49:38.880,21,false,0.0,4408.846,4464.359,4228.462,4403.462,4319.872
1749332978.8887,14:49:38.888,22,false,0.0,4414.103,4469.359,4230.897,4416.282,4332.949
1749332978.8965,14:49:38.896,23,false,0.0,4405.769,4475.385,4218.846,4405.385,4332.949
1749332978.9042,14:49:38.904,24,false,0.0,4386.026,4469.231,4218.333,4372.308,4326.795
1749332978.912,14:49:38.912,25,false,0.0,4385.0,4476.923,4237.821,4369.103,4337.821
1749332978.9198,14:49:38.919,26,false,0.0,4392.564,4477.051,4235.385,4376.026,4342.308
1749332978.9276,14:49:38.927,27,false,0.0,4388.974,4468.718,4220.0,4368.846,4333.333
1749332978.9353,14:49:38.935,28,false,0.0,4390.385,4481.282,4230.385,4367.436,4343.333
1749332978.9432,14:49:38.943,29,false,0.0,4397.692,4483.333,4238.077,4371.026,4358.718
1749332978.951,14:49:38.951,30,false,0.0,4395.897,4470.128,4224.872,4378.077,4350.385
1749332978.9588,14:49:38.958,31,false,0.0,4392.436,4484.487,4224.872,4395.256,4342.821
1749332978.9665,14:49:38.966,32,false,0.0,4391.667,4487.692,4231.667,4403.462,4349.103
1749332978.9743,14:49:38.974,33,false,0.0,4389.103,4454.103,4226.538,4407.949,4348.205
1749332978.9821,14:49:38.982,34,false,0.0,4393.333,4450.385,4228.333,4425.769,4343.59
1749332978.9899,14:49:38.989,35,false,0.0,4399.487,4472.179,4228.846,4432.308,4344.359
1749332978.9976,14:49:38.997,36,false,0.0,4392.308,4460.128,4215.897,4420.897,4343.846
1749332979.0054,14:49:39.005,37,false,0.0,4381.41,4444.359,4217.436,4414.615,4344.744
1749332979.0132,14:49:39.013,38,false,0.0,4380.513,4458.718,4227.949,4408.846,4345.897
1749332979.0211,14:49:39.021,39,false,0.0,4383.333,4469.744,4222.821,4400.0,4343.205
1749332979.0288,14:49:39.028,40,false,0.0,4376.667,4462.564,4218.462,4392.564,4340.385
1749332979.0366,14:49:39.036,41,false,0.0,4358.077,4452.436,4216.538,4372.436,4328.205
1749332979.0444,14:49:39.044,42,false,0.0,4347.436,4452.564,4209.359,4353.333,4313.077
1749332979.0522,14:49:39.052,43,false,0.0,4357.949,4465.769,4221.154,4361.538,4321.667
1749332979.0599,14:49:39.059,44,false,0.0,4363.205,4466.795,4239.359,4373.59,4333.333
1749332979.0677,14:49:39.067,45,false,0.0,4348.59,4450.641,4230.256,4371.923,4321.538
1749332979.0755,14:49:39.075,46,false,0.0,4341.923,4454.359,4222.436,4381.154,4317.692
1749332979.0833,14:49:39.083,47,false,0.0,4353.718,4475.256,4232.949,4406.923,4328.974
1749332979.0912,14:49:39.091,48,false,0.0,4365.897,4476.795,4227.821,4424.359,4327.564
1749332979.0991,14:49:39.099,49,false,0.0,4373.974,4467.564,4211.795,4424.487,4327.436
1749332979.1069,14:49:39.106,50,false,0.0,4375.769,4468.974,4211.667,4424.872,4335.513
1749332979.1147,14:49:39.114,51,false,0.0,4366.282,4468.59,4213.846,4437.179,4325.897
1749332979.1226,14:49:39.122,52,false,0.0,4359.231,4457.949,4207.564,4445.641,4313.59
1749332979.1304,14:49:39.130,53,false,0.0,4362.179,4451.667,4203.974,4434.487,4320.128
1749332979.1382,14:49:39.138,54,false,0.0,4363.077,4457.692,4207.308,4413.59,4324.487
1749332979.146,14:49:39.146,55,false,0.0,4363.077,4464.872,4215.256,4399.872,4321.41
1749332979.1539,14:49:39.153,56,false,0.0,4366.154,4466.538,4222.949,4398.846,4319.872
1749332979.1617,14:49:39.161,57,false,0.0,4358.974,4470.769,4225.513,4395.513,4313.205
1749332979.1695,14:49:39.169,58,false,0.0,4344.872,4469.872,4223.333,4375.256,4308.846
1749332979.1774,14:49:39.177,59,false,0.0,4342.179,4451.41,4213.718,4361.667,4311.538
1749332979.1853,14:49:39.185,60,false,0.0,4342.179,4440.897,4204.359,4374.744,4303.462
1749332979.1931,14:49:39.193,61,false,0.0,4334.487,4455.256,4211.282,4387.436,4294.872
1749332979.2009,14:49:39.200,62,false,0.0,4333.59,4462.308,4220.128,4388.205,4298.718
1749332979.2087,14:49:39.208,63,false,0.0,4338.077,4452.179,4210.385,4397.436,4293.333
1749332979.2166,14:49:39.216,64,false,0.0,4331.026,4450.769,4196.667,4413.718,4282.692
1749332979.2244,14:49:39.224,65,false,0.0,4322.692,4452.692,4193.077,4426.026,4288.205
1749332979.2322,14:49:39.232,66,false,0.0,4323.462,4444.615,4189.103,4432.179,4290.128
1749332979.24,14:49:39.240,67,false,0.0,4321.923,4444.487,4181.795,4428.462,4281.923
1749332979.2479,14:49:39.247,68,false,0.0,4326.795,4458.974,4181.923,4427.692,4295.128
1749332979.2557,14:49:39.255,69,false,0.0,4351.923,4469.615,4194.744,4432.692,4324.103
1749332979.2636,14:49:39.263,70,false,0.0,4367.692,4470.385,4208.846,4414.103,4333.462
1749332979.2714,14:49:39.271,71,false,0.0,4352.949,4469.103,4206.41,4378.846,4320.769
1749332979.2791,14:49:39.279,72,false,0.0,4337.949,4468.718,4191.795,4363.077,4304.615
1749332979.2869,14:49:39.286,73,false,0.0,4336.667,4463.205,4182.179,4359.103,4292.564
1749332979.2947,14:49:39.294,74,false,0.0,4330.0,4447.692,4178.974,4351.282,4285.128
1749332979.3025,14:49:39.302,75,false,0.0,4322.821,4434.359,4179.487,4348.59,4285.128
1749332979.3102,14:49:39.310,76,false,0.0,4325.769,4431.538,4184.615,4350.513,4291.282
1749332979.318,14:49:39.318,77,false,0.0,4325.128,4426.154,4188.718,4357.436,4294.744
1749332979.3258,14:49:39.325,78,false,0.0,4322.564,4422.564,4191.923,4375.897,4294.359
1749332979.3336,14:49:39.333,79,false,0.0,4329.231,4436.026,4197.179,4391.923,4292.821
1749332979.3414,14:49:39.341,80,false,0.0,4326.667,4443.462,4197.179,4397.949,4282.692
1749332979.3492,14:49:39.349,81,false,0.0,4312.436,4431.795,4192.821,4403.974,4273.205
1749332979.357,14:49:39.357,82,false,0.0,4309.487,4433.718,4193.846,4408.59,4281.795
1749332979.3648,14:49:39.364,83,false,0.0,4306.923,4446.538,4192.821,4409.359,4290.256
1749332979.3725,14:49:39.372,84,false,0.0,4291.154,4441.538,4182.821,4407.436,4285.0
1749332979.3803,14:49:39.380,85,false,0.0,4286.41,4441.282,4177.692,4398.333,4287.436
1749332979.3881,14:49:39.388,86,false,0.0,4293.077,4459.231,4185.0,4389.744,4294.744
1749332979.3959,14:49:39.395,87,false,0.0,4288.462,4458.462,4187.564,4382.179,4286.795
1749332979.4036,14:49:39.403,88,false,0.0,4287.436,4440.897,4176.154,4359.487,4277.821
1749332979.4114,14:49:39.411,89,false,0.0,4297.692,4437.821,4169.103,4339.487,4277.692
1749332979.4193,14:49:39.419,90,false,0.0,4295.256,4436.923,4176.923,4347.436,4276.667
1749332979.4271,14:49:39.427,91,false,0.0,4288.846,4431.538,4181.795,4360.641,4281.923
1749332979.4348,14:49:39.434,92,false,0.0,4298.718,4440.128,4178.205,4361.795,4293.205
1749332979.4426,14:49:39.442,93,false,0.0,4306.41,4448.462,4180.0,4368.59,4295.385
1749332979.4504,14:49:39.450,94,false,0.0,4300.385,4438.846,4178.846,4387.564,4291.282
1749332979.4582,14:49:39.458,95,false,0.0,4296.026,4430.641,4168.333,4413.974,4286.154
1749332979.4659,14:49:39.465,96,false,0.0,4300.385,4430.769,4170.256,4433.846,4279.744
1749332979.4737,14:49:39.473,97,false,0.0,4311.538,4423.205,4182.949,4430.385,4280.769
1749332979.4815,14:49:39.481,98,false,0.0,4318.974,4415.128,4181.026,4426.538,4287.692
1749332979.4893,14:49:39.489,99,false,0.0,4312.179,4421.154,4172.051,4440.385,4291.154
1749332979.4973,14:49:39.497,100,false,0.0,4307.179,4428.333,4169.615,4436.923,4289.103
1749332979.5051,14:49:39.505,101,false,0.0,4315.641,4420.513,4159.872,4412.051,4276.795
1749332979.5129,14:49:39.512,102,false,0.0,4319.487,4407.949,4145.128,4398.59,4262.436
1749332979.5207,14:49:39.520,103,false,0.0,4316.154,4404.359,4147.692,4385.385,4263.205
1749332979.5286,14:49:39.528,104,false,0.0,4323.59,4406.154,4161.026,4368.333,4271.282
1749332979.5364,14:49:39.536,105,false,0.0,4333.974,4409.359,4164.103,4370.0,4276.923
1749332979.5442,14:49:39.544,106,false,0.0,4333.077,4412.308,4159.872,4370.385,4281.923
1749332979.552,14:49:39.552,107,false,0.0,4334.487,4410.769,4158.077,4358.974,4275.897
1749332979.5599,14:49:39.559,108,false,0.0,4348.333,4412.692,4157.179,4367.821,4270.513
1749332979.5677,14:49:39.567,109,false,0.0,4356.795,4423.077,4158.59,4383.718,4288.718
1749332979.5756,14:49:39.575,110,false,0.0,4351.154,4424.103,4162.821,4381.923,4298.974
1749332979.5834,14:49:39.583,111,false,0.0,4344.487,4412.308,4160.128,4392.179,4278.333
1749332979.5913,14:49:39.591,112,false,0.0,4340.256,4410.0,4154.615,4417.949,4266.026
1749332979.5991,14:49:39.599,113,false,0.0,4335.513,4415.256,4162.051,4421.795,4269.359
1749332979.6069,14:49:39.606,114,false,0.0,4336.538,4410.385,4169.872,4406.282,4258.974
1749332979.6147,14:49:39.614,115,false,0.0,4337.692,4403.205,4162.051,4399.487,4250.641
1749332979.6226,14:49:39.622,116,false,0.0,4331.282,4408.59,4161.667,4404.744,4262.308
1749332979.6304,14:49:39.630,117,false,0.0,4329.359,4420.385,4177.949,4403.077,4270.128
1749332979.6382,14:49:39.638,118,false,0.0,4332.051,4422.051,4178.462,4380.513,4263.077
1749332979.646,14:49:39.646,119,false,0.0,4323.077,4412.564,4163.846,4359.103,4253.718
1749332979.6538,14:49:39.653,120,false,0.0,4311.667,4410.0,4163.59,4361.667,4248.974
1749332979.6616,14:49:39.661,121,false,0.0,4310.513,4412.051,4166.282,4362.692,4252.308
1749332979.6694,14:49:39.669,122,false,0.0,4309.231,4403.333,4159.872,4347.692,4262.436
1749332979.6772,14:49:39.677,123,false,0.0,4306.154,4403.333,4167.308,4346.026,4272.564
1749332979.6849,14:49:39.684,124,false,0.0,4309.103,4421.538,4179.615,4363.59,4280.385
1749332979.6927,14:49:39.692,125,false,0.0,4315.0,4426.923,4174.872,4379.744,4283.205
1749332979.7005,14:49:39.700,126,false,0.0,4323.462,4425.641,4175.513,4395.128,4283.974
1749332979.7083,14:49:39.708,127,false,0.0,4327.949,4440.769,4184.615,4411.923,4285.385
1749332979.716,14:49:39.716,0,false,0.0,4314.615,4440.641,4174.872,4425.769,4276.667
1749332979.7238,14:49:39.723,1,false,0.0,4305.0,4419.359,4167.821,4437.564,4263.718
1749332979.7317,14:49:39.731,2,false,0.0,4325.128,4420.769,4183.077,4440.641,4271.41
1749332979.7395,14:49:39.739,3,false,0.0,4347.949,4434.359,4180.897,4435.128,4290.0
1749332979.7472,14:49:39.747,4,false,0.0,4346.538,4424.359,4160.0,4431.923,4291.795
1749332979.755,14:49:39.755,5,false,0.0,4338.462,4408.59,4166.667,4422.051,4284.359
1749332979.7628,14:49:39.762,6,false,0.0,4337.179,4409.487,4185.513,4397.436,4281.154
1749332979.7706,14:49:39.770,7,false,0.0,4337.051,4418.974,4179.103,4377.436,4277.692
1749332979.7783,14:49:39.778,8,false,0.0,4332.308,4423.333,4166.923,4370.385,4275.897
1749332979.7861,14:49:39.786,9,false,0.0,4319.872,4414.744,4163.462,4366.026,4274.103
1749332979.7939,14:49:39.793,10,false,0.0,4310.256,4406.667,4155.513,4362.051,4268.59
1749332979.8017,14:49:39.801,11,false,0.0,4308.718,4409.487,4150.0,4353.59,4268.077
1749332979.8095,14:49:39.809,12,false,0.0,4293.205,4402.821,4147.308,4346.154,4265.769
1749332979.8173,14:49:39.817,13,false,0.0,4268.846,4392.821,4137.051,4363.462,4254.487
1749332979.8251,14:49:39.825,14,false,0.0,4266.923,4403.205,4138.333,4391.282,4255.128
1749332979.8329,14:49:39.832,15,false,0.0,4270.513,4403.077,4146.026,4392.179,4261.795
1749332979.8408,14:49:39.840,16,false,0.0,4259.487,4379.103,4129.487,4382.051,4249.744
1749332979.8486,14:49:39.848,17,false,0.0,4264.231,4381.41,4119.359,4394.615,4243.077
1749332979.8564,14:49:39.856,18,false,0.0,4285.641,4403.59,4139.359,4412.436,4256.667
1749332979.8642,14:49:39.864,19,false,0.0,4286.923,4397.179,4143.205,4410.128,4257.051
1749332979.8721,14:49:39.872,20,false,0.0,4277.308,4387.308,4132.308,4397.051,4250.0
1749332979.8799,14:49:39.879,21,false,0.0,4279.103,4398.205,4143.718,4387.821,4261.282
1749332979.8878,14:49:39.887,22,false,0.0,4281.538,4392.051,4142.949,4380.513,4264.103
1749332979.8956,14:49:39.895,23,false,0.0,4282.436,4376.154,4120.897,4364.872,4248.59
1749332979.9035,14:49:39.903,24,false,0.0,4292.949,4390.641,4133.333,4342.308,4250.769
1749332979.9113,14:49:39.911,25,false,0.0,4305.0,4403.846,4161.923,4332.308,4268.846
1749332979.9191,14:49:39.919,26,false,0.0,4307.692,4384.103,4151.667,4336.795,4276.154
1749332979.9269,14:49:39.926,27,false,0.0,4303.59,4377.821,4132.949,4337.821,4276.667
1749332979.9348,14:49:39.934,28,false,0.0,4298.462,4404.872,4145.641,4339.744,4275.769
1749332979.9426,14:49:39.942,29,false,0.0,4291.026,4411.795,4164.615,4354.487,4266.667
1749332979.9504,14:49:39.950,30,false,0.0,4278.846,4386.795,4164.231,4370.641,4254.744
1749332979.9582,14:49:39.958,31,false,0.0,4275.256,4378.205,4148.462,4383.205,4247.692
1749332979.9662,14:49:39.966,32,false,0.0,4297.949,4385.256,4130.0,4396.41,4251.538
1749332979.974,14:49:39.974,33,false,0.0,4336.026,4376.923,4125.897,4403.205,4272.308
1749332979.9818,14:49:39.981,34,false,0.0,4361.41,4375.513,4141.538,4407.051,4298.333
1749332979.9896,14:49:39.989,35,false,0.0,4365.385,4397.308,4157.949,4412.308,4311.795
1749332979.9975,14:49:39.997,36,false,0.0,4363.205,4407.821,4160.256,4402.821,4315.769
1749332980.0053,14:49:40.005,37,false,0.0,4366.667,4401.282,4160.256,4382.179,4319.103
1749332980.0131,14:49:40.013,38,false,0.0,4363.846,4401.667,4161.154,4372.179,4317.051
1749332980.0209,14:49:40.020,39,false,0.0,4345.513,4402.051,4149.231,4364.615,4307.821
1749332980.0288,14:49:40.028,40,false,0.0,4337.692,4398.718,4142.949,4351.923,4306.282
1749332980.0366,14:49:40.036,41,false,0.0,4357.692,4404.103,4161.795,4346.795,4320.128
1749332980.0444,14:49:40.044,42,false,0.0,4371.923,4403.718,4174.231,4344.744,4327.436
1749332980.0523,14:49:40.052,43,false,0.0,4357.179,4389.872,4168.846,4342.436,4313.718
1749332980.06,14:49:40.060,44,false,0.0,4346.795,4386.923,4177.179,4349.615,4303.462
1749332980.0678,14:49:40.067,45,false,0.0,4355.385,4395.513,4185.513,4356.795,4305.385
1749332980.0756,14:49:40.075,46,false,0.0,4352.821,4393.462,4173.462,4366.538,4295.256
1749332980.0834,14:49:40.083,47,false,0.0,4340.897,4385.641,4175.0,4396.667,4284.359
1749332980.0911,14:49:40.091,48,false,0.0,4341.795,4386.923,4186.795,4419.872,4297.051
1749332980.0989,14:49:40.098,49,false,0.0,4333.077,4387.949,4167.436,4407.821,4303.846
1749332980.1067,14:49:40.106,50,false,0.0,4305.385,4380.641,4142.564,4397.308,4288.205
1749332980.1145,14:49:40.114,51,false,0.0,4296.923,4375.513,4146.923,4410.385,4285.897
1749332980.1224,14:49:40.122,52,false,0.0,4305.513,4376.538,4150.128,4412.949,4297.308
1749332980.1303,14:49:40.130,53,false,0.0,4301.026,4378.333,4142.308,4392.179,4297.692
1749332980.1381,14:49:40.138,54,false,0.0,4302.949,4387.949,4154.103,4372.179,4305.256
1749332980.1459,14:49:40.145,55,false,0.0,4322.692,4401.923,4169.615,4363.718,4322.179
1749332980.1536,14:49:40.153,56,false,0.0,4324.359,4398.846,4157.179,4358.974,4315.256
1749332980.1614,14:49:40.161,57,false,0.0,4309.231,4390.385,4144.487,4351.41,4300.513
1749332980.1692,14:49:40.169,58,false,0.0,4310.641,4396.026,4155.128,4345.513,4308.974
1749332980.177,14:49:40.177,59,false,0.0,4317.821,4392.692,4157.821,4345.897,4313.718
1749332980.1849,14:49:40.184,60,false,0.0,4307.308,4376.667,4142.308,4350.385,4296.667
1749332980.1927,14:49:40.192,61,false,0.0,4295.641,4377.692,4137.692,4362.051,4284.231
1749332980.2005,14:49:40.200,62,false,0.0,4300.0,4380.128,4142.564,4378.846,4280.641
1749332980.2084,14:49:40.208,63,false,0.0,4304.359,4365.641,4141.41,4386.026,4274.103
1749332980.2161,14:49:40.216,64,false,0.0,4298.718,4359.615,4144.744,4389.872,4275.641
1749332980.2239,14:49:40.223,65,false,0.0,4295.513,4358.974,4146.667,4404.359,4282.564
1749332980.2317,14:49:40.231,66,false,0.0,4292.692,4351.538,4136.923,4411.026,4278.333
1749332980.2395,14:49:40.239,67,false,0.0,4284.487,4366.667,4141.154,4403.462,4272.436
1749332980.2474,14:49:40.247,68,false,0.0,4286.923,4391.667,4157.308,4402.179,4276.41
1749332980.2552,14:49:40.255,69,false,0.0,4291.282,4382.051,4146.41,4393.974,4280.769
1749332980.263,14:49:40.263,70,false,0.0,4271.538,4369.359,4123.974,4363.59,4282.179
1749332980.2708,14:49:40.270,71,false,0.0,4251.41,4388.462,4128.846,4343.205,4282.564
1749332980.2787,14:49:40.278,72,false,0.0,4255.128,4395.769,4137.051,4346.026,4277.564
1749332980.2866,14:49:40.286,73,false,0.0,4250.0,4372.179,4122.051,4346.923,4268.59
1749332980.2944,14:49:40.294,74,false,0.0,4230.256,4364.487,4111.795,4348.462,4263.462
1749332980.3022,14:49:40.302,75,false,0.0,4234.359,4386.538,4121.667,4363.462,4266.923
1749332980.3101,14:49:40.310,76,false,0.0,4256.538,4402.564,4128.974,4380.128,4273.077
1749332980.3179,14:49:40.317,77,false,0.0,4258.077,4396.154,4121.41,4395.0,4265.897
1749332980.3257,14:49:40.325,78,false,0.0,4241.41,4376.795,4106.538,4409.744,4246.923
1749332980.3335,14:49:40.333,79,false,0.0,4236.41,4357.179,4098.333,4412.179,4239.487
1749332980.3414,14:49:40.341,80,false,0.0,4249.103,4355.0,4105.513,4407.564,4241.154
1749332980.3492,14:49:40.349,81,false,0.0,4260.256,4368.333,4113.846,4416.154,4232.949
1749332980.357,14:49:40.357,82,false,0.0,4258.077,4367.179,4109.872,4428.59,4225.385
1749332980.3649,14:49:40.364,83,false,0.0,4251.795,4351.154,4109.744,4420.256,4227.949
1749332980.3728,14:49:40.372,84,false,0.0,4250.769,4350.897,4119.744,4398.846,4223.718
1749332980.3806,14:49:40.380,85,false,0.0,4254.231,4363.077,4122.308,4389.103,4215.641
1749332980.3884,14:49:40.388,86,false,0.0,4259.872,4364.359,4121.923,4387.821,4218.718
1749332980.3962,14:49:40.396,87,false,0.0,4266.923,4356.667,4129.872,4376.795,4218.846
1749332980.4039,14:49:40.403,88,false,0.0,4269.872,4353.333,4132.179,4359.872,4208.718
1749332980.4117,14:49:40.411,89,false,0.0,4263.718,4361.667,4127.436,4353.846,4209.744
1749332980.4195,14:49:40.419,90,false,0.0,4260.128,4375.256,4132.308,4360.769,4225.385
1749332980.4273,14:49:40.427,91,false,0.0,4271.795,4379.615,4135.513,4368.59,4232.949
1749332980.435,14:49:40.435,92,false,0.0,4275.897,4380.769,4126.154,4372.308,4224.231
1749332980.4429,14:49:40.442,93,false,0.0,4261.923,4384.231,4124.744,4385.641,4218.077
1749332980.4507,14:49:40.450,94,false,0.0,4265.513,4376.41,4134.615,4410.897,4228.974
1749332980.4585,14:49:40.458,95,false,0.0,4286.154,4369.103,4131.795,4419.615,4241.923
1749332980.4662,14:49:40.466,96,false,0.0,4282.308,4379.231,4119.487,4408.59,4238.718
1749332980.474,14:49:40.474,97,false,0.0,4265.0,4383.077,4117.051,4408.333,4228.974
1749332980.4818,14:49:40.481,98,false,0.0,4263.718,4371.282,4117.821,4416.282,4227.949
1749332980.4896,14:49:40.489,99,false,0.0,4266.923,4369.615,4114.359,4413.462,4234.103
1749332980.4973,14:49:40.497,100,false,0.0,4267.179,4378.846,4114.744,4404.744,4236.795
1749332980.5051,14:49:40.505,101,false,0.0,4268.077,4378.846,4112.692,4387.564,4226.154
1749332980.5129,14:49:40.512,102,false,0.0,4262.692,4366.282,4103.59,4366.795,4209.359
1749332980.5208,14:49:40.520,103,false,0.0,4255.128,4351.154,4102.821,4363.205,4202.692
1749332980.5285,14:49:40.528,104,false,0.0,4251.667,4347.051,4108.333,4359.872,4198.205
1749332980.5363,14:49:40.536,105,false,0.0,4250.897,4353.59,4109.103,4344.615,4192.564
1749332980.5441,14:49:40.544,106,false,0.0,4255.128,4355.513,4113.205,4348.846,4205.769
1749332980.5519,14:49:40.551,107,false,0.0,4254.103,4355.0,4113.974,4366.282,4224.487
1749332980.5596,14:49:40.559,108,false,0.0,4243.077,4361.538,4100.128,4367.692,4220.256
1749332980.5674,14:49:40.567,109,false,0.0,4241.667,4365.256,4095.0,4370.256,4214.359
1749332980.5752,14:49:40.575,110,false,0.0,4244.744,4366.282,4103.59,4387.436,4221.667
1749332980.583,14:49:40.583,111,false,0.0,4234.359,4375.897,4098.846,4403.59,4214.744
1749332980.5907,14:49:40.590,112,false,0.0,4227.308,4378.59,4089.103,4411.667,4196.923
1749332980.5986,14:49:40.598,113,false,0.0,4235.769,4367.692,4094.744,4405.513,4202.308
1749332980.6064,14:49:40.606,114,false,0.0,4246.667,4374.744,4101.795,4395.0,4226.282
1749332980.6142,14:49:40.614,115,false,0.0,4252.821,4391.026,4097.949,4400.0,4236.026
1749332980.6221,14:49:40.622,116,false,0.0,4250.641,4370.897,4086.282,4398.846,4223.846
1749332980.6299,14:49:40.629,117,false,0.0,4247.692,4342.564,4077.564,4373.974,4215.513
1749332980.6377,14:49:40.637,118,false,0.0,4254.231,4355.513,4084.615,4354.744,4222.949
1749332980.6455,14:49:40.645,119,false,0.0,4253.205,4370.513,4092.564,4350.513,4223.59
1749332980.6534,14:49:40.653,120,false,0.0,4244.103,4359.487,4086.795,4349.103,4217.436
1749332980.6612,14:49:40.661,121,false,0.0,4251.154,4361.026,4087.051,4351.41,4226.795
1749332980.669,14:49:40.669,122,false,0.0,4253.205,4365.128,4093.077,4349.744,4229.487
1749332980.6769,14:49:40.676,123,false,0.0,4231.667,4345.128,4087.692,4347.308,4207.949
1749332980.6848,14:49:40.684,124,false,0.0,4224.103,4343.846,4085.0,4361.41,4199.359
1749332980.6926,14:49:40.692,125,false,0.0,4231.41,4367.564,4088.205,4376.667,4206.026
1749332980.7004,14:49:40.700,126,false,0.0,4220.256,4371.154,4087.564,4382.051,4195.513
1749332980.7082,14:49:40.708,127,false,0.0,4211.282,4369.487,4093.846,4391.41,4188.205
1749332980.7161,14:49:40.716,0,false,0.0,4222.051,4378.59,4095.256,4394.487,4196.923
1749332980.7239,14:49:40.723,1,false,0.0,4226.41,4365.769,4081.026,4387.308,4190.128
1749332980.7317,14:49:40.731,2,false,0.0,4223.846,4343.846,4078.205,4387.821,4178.205
1749332980.7395,14:49:40.739,3,false,0.0,4229.359,4349.615,4080.0,4385.256,4188.974
1749332980.7474,14:49:40.747,4,false,0.0,4235.769,4366.795,4069.744,4373.846,4202.949
1749332980.7553,14:49:40.755,5,false,0.0,4242.051,4375.256,4078.59,4369.615,4207.051
1749332980.7631,14:49:40.763,6,false,0.0,4247.692,4377.051,4093.846,4357.821,4210.897
1749332980.7709,14:49:40.770,7,false,0.0,4244.103,4368.333,4077.564,4334.615,4210.769
1749332980.7786,14:49:40.778,8,false,0.0,4239.359,4353.077,4063.718,4331.154,4206.795
1749332980.7864,14:49:40.786,9,false,0.0,4238.462,4345.897,4067.692,4338.718,4206.154
1749332980.7942,14:49:40.794,10,false,0.0,4232.436,4353.077,4059.487,4334.359,4208.974
1749332980.802,14:49:40.802,11,false,0.0,4224.359,4362.821,4055.897,4335.513,4212.179
1749332980.8097,14:49:40.809,12,false,0.0,4218.205,4350.769,4061.667,4350.641,4202.564
1749332980.8175,14:49:40.817,13,false,0.0,4217.179,4333.846,4055.0,4368.718,4187.949
1749332980.8253,14:49:40.825,14,false,0.0,4229.487,4352.308,4065.513,4384.615,4197.692
1749332980.8331,14:49:40.833,15,false,0.0,4239.615,4375.0,4093.59,4387.564,4213.718
1749332980.8409,14:49:40.840,16,false,0.0,4231.026,4361.538,4093.718,4382.692,4209.615
1749332980.8487,14:49:40.848,17,false,0.0,4224.487,4353.718,4087.051,4391.026,4213.974
1749332980.8565,14:49:40.856,18,false,0.0,4228.846,4366.154,4094.744,4402.308,4227.949
1749332980.8643,14:49:40.864,19,false,0.0,4226.667,4354.359,4086.923,4396.923,4222.179
1749332980.872,14:49:40.872,20,false,0.0,4222.308,4337.564,4077.308,4384.359,4220.513
1749332980.8798,14:49:40.879,21,false,0.0,4222.564,4350.256,4084.359,4374.231,4234.872
1749332980.8876,14:49:40.887,22,false,0.0,4214.744,4357.051,4078.718,4365.897,4234.487
1749332980.8954,14:49:40.895,23,false,0.0,4205.0,4345.128,4057.821,4352.051,4226.667
1749332980.9031,14:49:40.903,24,false,0.0,4206.026,4344.872,4045.385,4330.641,4226.923
